%OpenBCI Raw EEG Data
%
%Sample Rate = 250.0 Hz
%First Column = SampleIndex
%Last Column = Timestamp 
%Other Columns = EEG data in microvolts followed by Accel Data (in G) interleaved with Aux Data
0, 0.00, 0.00, 0.00, 0.00, 0.00, 0.00, 0.00, 0.00, 21343.05, 5063.03, 78584.13, -4475.36, 11437.03, 56.89, 54105.28, -2657.00, 0.000, 0.000, 0.000, 16:40:44.708
1, -55663.69, -16181.61, 76313.37, 78311.41, -22158.24, -22717.17, -20767.56, 78717.37, 21343.05, 5063.03, 78584.13, -4475.36, 11437.03, 56.89, 54105.28, -2657.00, -0.026, 0.902, -0.286, 16:40:45.187
2, -55663.69, -16181.61, 76313.37, 78311.41, -22158.24, -22717.17, -20767.56, 78717.37, 44989.37, 13656.65, 167210.31, -9420.86, 23169.75, -774.04, 82211.26, -4791.45, 0.000, 0.000, 0.000, 16:40:45.187
3, -111310.63, -32348.52, 152629.44, 156625.63, -44311.68, -45429.76, -41531.20, 157441.75, 44989.37, 13656.65, 167210.31, -9420.86, 23169.75, -774.04, 82211.26, -4791.45, 0.000, 0.000, 0.000, 16:40:45.188
4, -111310.63, -32348.52, 152629.44, 156625.63, -44311.68, -45429.76, -41531.20, 157441.75, 44986.30, 13665.30, 167204.28, -9417.17, 23167.96, -773.19, 82224.76, -4790.40, 0.000, 0.000, 0.000, 16:40:45.188
5, -111296.04, -32338.12, 152628.97, 156626.02, -44307.37, -45436.13, -41528.40, 157438.63, 44986.30, 13665.30, 167204.28, -9417.17, 23167.96, -773.19, 82224.76, -4790.40, 0.000, 0.000, 0.000, 16:40:45.188
6, -111296.04, -32338.12, 152628.97, 156626.02, -44307.37, -45436.13, -41528.40, 157438.63, 44983.82, 13667.00, 167187.80, -9422.96, 23162.49, -786.27, 82243.35, -4791.90, 0.000, 0.000, 0.000, 16:40:45.188
7, -111290.94, -32335.60, 152624.17, 156620.48, -44310.97, -45434.21, -41531.82, 157433.97, 44983.82, 13667.00, 167187.80, -9422.96, 23162.49, -786.27, 82243.35, -4791.90, 0.000, 0.000, 0.000, 16:40:45.188
8, -111290.94, -32335.60, 152624.17, 156620.48, -44310.97, -45434.21, -41531.82, 157433.97, 44981.48, 13657.68, 167173.86, -9426.09, 23157.59, -784.26, 82251.51, -4799.55, -0.072, 0.900, -0.256, 16:40:45.189
9, -111281.73, -32326.46, 152623.11, 156614.27, -44314.16, -45435.75, -41521.92, 157439.88, 44981.48, 13657.68, 167173.86, -9426.09, 23157.59, -784.26, 82251.51, -4799.55, 0.000, 0.000, 0.000, 16:40:45.189
10, -111281.73, -32326.46, 152623.11, 156614.27, -44314.16, -45435.75, -41521.92, 157439.88, 44986.13, 13659.04, 167165.16, -9430.42, 23159.31, -787.21, 82273.17, -4794.56, 0.000, 0.000, 0.000, 16:40:45.189
11, -111277.87, -32324.11, 152621.23, 156600.47, -44314.14, -45438.82, -41524.04, 157444.08, 44986.13, 13659.04, 167165.16, -9430.42, 23159.31, -787.21, 82273.17, -4794.56, 0.000, 0.000, 0.000, 16:40:45.190
12, -111277.87, -32324.11, 152621.23, 156600.47, -44314.14, -45438.82, -41524.04, 157444.08, 44994.98, 13660.33, 167160.56, -9429.64, 23176.97, -787.94, 82292.73, -4786.49, 0.000, 0.000, 0.000, 16:40:45.190
13, -111263.41, -32314.74, 152618.75, 156592.72, -44304.91, -45441.81, -41520.04, 157455.00, 44994.98, 13660.33, 167160.56, -9429.64, 23176.97, -787.94, 82292.73, -4786.49, 0.000, 0.000, 0.000, 16:40:45.191
14, -111263.41, -32314.74, 152618.75, 156592.72, -44304.91, -45441.81, -41520.04, 157455.00, 44996.25, 13670.82, 167147.91, -9437.98, 23176.23, -796.50, 82329.43, -4774.60, 0.000, 0.000, 0.000, 16:40:45.191
15, -111249.92, -32301.98, 152617.03, 156592.45, -44309.09, -45445.14, -41523.10, 157453.97, 44996.25, 13670.82, 167147.91, -9437.98, 23176.23, -796.50, 82329.43, -4774.60, 0.000, 0.000, 0.000, 16:40:45.191
16, -111249.92, -32301.98, 152617.03, 156592.45, -44309.09, -45445.14, -41523.10, 157453.97, 45008.28, 13663.02, 167158.31, -9423.70, 23188.41, -782.76, 82338.21, -4784.35, 0.000, 0.000, 0.000, 16:40:45.191
17, -111245.43, -32298.65, 152622.02, 156601.33, -44293.15, -45435.08, -41514.56, 157460.20, 45008.28, 13663.02, 167158.31, -9423.70, 23188.41, -782.76, 82338.21, -4784.35, 0.000, 0.000, 0.000, 16:40:45.192
18, -111245.43, -32298.65, 152622.02, 156601.33, -44293.15, -45435.08, -41514.56, 157460.20, 45000.70, 13665.66, 167151.61, -9425.24, 23175.58, -790.69, 82356.70, -4779.00, -0.064, 0.902, -0.260, 16:40:45.192
19, -111225.49, -32279.36, 152629.02, 156613.33, -44298.09, -45440.87, -41512.46, 157458.73, 45000.70, 13665.66, 167151.61, -9425.24, 23175.58, -790.69, 82356.70, -4779.00, 0.000, 0.000, 0.000, 16:40:45.192
20, -111225.49, -32279.36, 152629.02, 156613.33, -44298.09, -45440.87, -41512.46, 157458.73, 44994.69, 13658.08, 167155.59, -9420.19, 23170.20, -783.59, 82370.76, -4782.02, 0.000, 0.000, 0.000, 16:40:45.192
21, -111214.79, -32272.72, 152631.50, 156621.81, -44310.36, -45440.04, -41512.22, 157452.23, 44994.69, 13658.08, 167155.59, -9420.19, 23170.20, -783.59, 82370.76, -4782.02, 0.000, 0.000, 0.000, 16:40:45.193
22, -111214.79, -32272.72, 152631.50, 156621.81, -44310.36, -45440.04, -41512.22, 157452.23, 44991.89, 13655.26, 167164.75, -9416.92, 23168.10, -789.20, 82383.84, -4782.92, 0.000, 0.000, 0.000, 16:40:45.193
23, -111210.56, -32272.56, 152630.98, 156627.88, -44308.64, -45439.13, -41526.99, 157451.14, 44991.89, 13655.26, 167164.75, -9416.92, 23168.10, -789.20, 82383.84, -4782.92, 0.000, 0.000, 0.000, 16:40:45.193
24, -111210.56, -32272.56, 152630.98, 156627.88, -44308.64, -45439.13, -41526.99, 157451.14, 44990.73, 13652.04, 167184.50, -9404.63, 23177.80, -783.83, 82384.33, -4791.66, 0.000, 0.000, 0.000, 16:40:45.193
25, -111208.73, -32275.65, 152634.73, 156633.13, -44310.19, -45435.86, -41537.27, 157453.61, 44990.73, 13652.04, 167184.50, -9404.63, 23177.80, -783.83, 82384.33, -4791.66, 0.000, 0.000, 0.000, 16:40:45.193
26, -111208.73, -32275.65, 152634.73, 156633.13, -44310.19, -45435.86, -41537.27, 157453.61, 44990.13, 13650.84, 167185.83, -9398.13, 23176.43, -785.51, 82387.09, -4786.78, 0.000, 0.000, 0.000, 16:40:45.194
27, -111190.52, -32260.74, 152632.39, 156629.03, -44303.88, -45435.13, -41538.59, 157455.05, 44990.13, 13650.84, 167185.83, -9398.13, 23176.43, -785.51, 82387.09, -4786.78, -0.060, 0.904, -0.268, 16:40:45.194
28, -111190.52, -32260.74, 152632.39, 156629.03, -44303.88, -45435.13, -41538.59, 157455.05, 44992.34, 13654.95, 167182.58, -9396.85, 23172.34, -781.51, 82410.50, -4775.43, 0.000, 0.000, 0.000, 16:40:45.194
29, -111223.55, -32294.60, 152640.30, 156641.33, -44330.08, -45419.66, -41544.83, 157445.28, 44992.34, 13654.95, 167182.58, -9396.85, 23172.34, -781.51, 82410.50, -4775.43, 0.000, 0.000, 0.000, 16:40:45.194
30, -111223.55, -32294.60, 152640.30, 156641.33, -44330.08, -45419.66, -41544.83, 157445.28, 44984.96, 13627.19, 167179.39, -9392.76, 23173.46, -784.41, 82377.48, -4793.20, 0.000, 0.000, 0.000, 16:40:45.194
31, -111206.56, -32284.50, 152630.09, 156625.73, -44314.61, -45432.71, -41535.17, 157451.66, 44984.96, 13627.19, 167179.39, -9392.76, 23173.46, -784.41, 82377.48, -4793.20, 0.000, 0.000, 0.000, 16:40:45.194
32, -111206.56, -32284.50, 152630.09, 156625.73, -44314.61, -45432.71, -41535.17, 157451.66, 44985.23, 13641.22, 167163.64, -9408.94, 23162.75, -792.84, 82407.34, -4783.45, 0.000, 0.000, 0.000, 16:40:45.195
33, -111185.28, -32266.31, 152618.38, 156607.61, -44322.48, -45441.05, -41545.27, 157454.48, 44985.23, 13641.22, 167163.64, -9408.94, 23162.75, -792.84, 82407.34, -4783.45, 0.000, 0.000, 0.000, 16:40:45.195
34, -111185.28, -32266.31, 152618.38, 156607.61, -44322.48, -45441.05, -41545.27, 157454.48, 44994.13, 13650.05, 167162.95, -9414.51, 23172.07, -800.75, 82438.53, -4781.66, 0.000, 0.000, 0.000, 16:40:45.195
35, -111173.33, -32258.80, 152619.19, 156595.80, -44318.75, -45442.23, -41543.04, 157459.50, 44994.13, 13650.05, 167162.95, -9414.51, 23172.07, -800.75, 82438.53, -4781.66, 0.000, 0.000, 0.000, 16:40:45.195
36, -111173.33, -32258.80, 152619.19, 156595.80, -44318.75, -45442.23, -41543.04, 157459.50, 45001.59, 13642.79, 167173.81, -9412.54, 23183.97, -800.64, 82446.22, -4796.33, 0.000, 0.000, 0.000, 16:40:45.196
37, -111180.70, -32272.59, 152623.63, 156587.75, -44321.61, -45447.06, -41541.90, 157460.70, 45001.59, 13642.79, 167173.81, -9412.54, 23183.97, -800.64, 82446.22, -4796.33, -0.062, 0.902, -0.268, 16:40:45.196
38, -111180.70, -32272.59, 152623.63, 156587.75, -44321.61, -45447.06, -41541.90, 157460.70, 45006.31, 13627.97, 167187.27, -9408.83, 23195.16, -803.41, 82442.59, -4807.75, 0.000, 0.000, 0.000, 16:40:45.196
39, -111177.17, -32269.84, 152625.89, 156582.56, -44306.52, -45450.21, -41530.70, 157474.30, 45006.31, 13627.97, 167187.27, -9408.83, 23195.16, -803.41, 82442.59, -4807.75, 0.000, 0.000, 0.000, 16:40:45.196
40, -111177.17, -32269.84, 152625.89, 156582.56, -44306.52, -45450.21, -41530.70, 157474.30, 45004.74, 13638.45, 167185.77, -9420.01, 23188.66, -814.41, 82467.98, -4804.57, 0.000, 0.000, 0.000, 16:40:45.197
41, -111150.55, -32250.28, 152628.14, 156583.94, -44299.01, -45447.82, -41523.91, 157481.13, 45004.74, 13638.45, 167185.77, -9420.01, 23188.66, -814.41, 82467.98, -4804.57, 0.000, 0.000, 0.000, 16:40:45.198
42, -111150.55, -32250.28, 152628.14, 156583.94, -44299.01, -45447.82, -41523.91, 157481.13, 45005.21, 13641.89, 167192.41, -9416.34, 23190.38, -810.56, 82492.10, -4801.51, 0.000, 0.000, 0.000, 16:40:45.198
43, -111141.68, -32249.34, 152628.53, 156591.48, -44300.71, -45454.04, -41526.03, 157470.61, 45005.21, 13641.89, 167192.41, -9416.34, 23190.38, -810.56, 82492.10, -4801.51, 0.000, 0.000, 0.000, 16:40:45.198
44, -111141.68, -32249.34, 152628.53, 156591.48, -44300.71, -45454.04, -41526.03, 157470.61, 45004.79, 13631.55, 167207.06, -9404.21, 23191.86, -793.78, 82486.92, -4812.33, 0.000, 0.000, 0.000, 16:40:45.198
45, -111150.84, -32261.10, 152631.50, 156605.22, -44290.34, -45443.71, -41525.36, 157472.17, 45004.79, 13631.55, 167207.06, -9404.21, 23191.86, -793.78, 82486.92, -4812.33, 0.000, 0.000, 0.000, 16:40:45.198
46, -111150.84, -32261.10, 152631.50, 156605.22, -44290.34, -45443.71, -41525.36, 157472.17, 44997.03, 13619.95, 167212.03, -9398.89, 23186.27, -798.20, 82471.63, -4824.56, 0.000, 0.000, 0.000, 16:40:45.199
47, -111143.30, -32258.19, 152622.88, 156604.19, -44281.84, -45453.79, -41534.19, 157469.89, 44997.03, 13619.95, 167212.03, -9398.89, 23186.27, -798.20, 82471.63, -4824.56, -0.070, 0.906, -0.268, 16:40:45.199
48, -111143.30, -32258.19, 152622.88, 156604.19, -44281.84, -45453.79, -41534.19, 157469.89, 44995.51, 13633.09, 167204.83, -9405.99, 23172.14, -799.70, 82491.39, -4805.20, 0.000, 0.000, 0.000, 16:40:45.199
49, -111127.46, -32251.11, 152618.47, 156609.81, -44300.29, -45452.72, -41542.55, 157465.70, 44995.51, 13633.09, 167204.83, -9405.99, 23172.14, -799.70, 82491.39, -4805.20, 0.000, 0.000, 0.000, 16:40:45.199
50, -111127.46, -32251.11, 152618.47, 156609.81, -44300.29, -45452.72, -41542.55, 157465.70, 44994.26, 13628.30, 167214.75, -9398.28, 23172.99, -798.67, 82493.54, -4804.13, 0.000, 0.000, 0.000, 16:40:45.199
51, -111124.51, -32252.07, 152623.11, 156611.98, -44296.62, -45446.10, -41543.58, 157467.63, 44994.26, 13628.30, 167214.75, -9398.28, 23172.99, -798.67, 82493.54, -4804.13, 0.000, 0.000, 0.000, 16:40:45.200
52, -111124.51, -32252.07, 152623.11, 156611.98, -44296.62, -45446.10, -41543.58, 157467.63, 44990.86, 13631.55, 167217.59, -9399.58, 23169.79, -806.18, 82501.38, -4804.73, 0.000, 0.000, 0.000, 16:40:45.200
53, -111118.01, -32254.35, 152620.03, 156607.17, -44294.09, -45446.88, -41542.39, 157472.06, 44990.86, 13631.55, 167217.59, -9399.58, 23169.79, -806.18, 82501.38, -4804.73, 0.000, 0.000, 0.000, 16:40:45.200
54, -111118.01, -32254.35, 152620.03, 156607.17, -44294.09, -45446.88, -41542.39, 157472.06, 44997.14, 13632.95, 167225.39, -9398.55, 23179.70, -797.91, 82502.34, -4804.66, 0.000, 0.000, 0.000, 16:40:45.200
55, -111126.30, -32267.16, 152617.45, 156603.22, -44298.74, -45431.46, -41538.70, 157491.08, 44997.14, 13632.95, 167225.39, -9398.55, 23179.70, -797.91, 82502.34, -4804.66, 0.000, 0.000, 0.000, 16:40:45.201
56, -111126.30, -32267.16, 152617.45, 156603.22, -44298.74, -45431.46, -41538.70, 157491.08, 44999.92, 13630.99, 167228.23, -9404.43, 23181.51, -792.82, 82499.88, -4796.89, 0.000, 0.000, 0.000, 16:40:45.201
57, -111144.98, -32287.72, 152622.36, 156599.69, -44304.87, -45433.96, -41535.26, 157503.28, 44999.92, 13630.99, 167228.23, -9404.43, 23181.51, -792.82, 82499.88, -4796.89, -0.066, 0.906, -0.278, 16:40:45.201
58, -111144.98, -32287.72, 152622.36, 156599.69, -44304.87, -45433.96, -41535.26, 157503.28, 44995.58, 13633.07, 167223.36, -9413.28, 23178.36, -805.29, 82502.01, -4788.21, 0.000, 0.000, 0.000, 16:40:45.201
59, -111114.90, -32259.56, 152616.19, 156585.94, -44296.30, -45444.47, -41529.16, 157506.50, 44995.58, 13633.07, 167223.36, -9413.28, 23178.36, -805.29, 82502.01, -4788.21, 0.000, 0.000, 0.000, 16:40:45.201
60, -111114.90, -32259.56, 152616.19, 156585.94, -44296.30, -45444.47, -41529.16, 157506.50, 45008.72, 13641.20, 167237.05, -9405.30, 23184.12, -799.63, 82528.31, -4780.61, 0.000, 0.000, 0.000, 16:40:45.202
61, -111126.88, -32273.64, 152626.61, 156587.44, -44311.64, -45444.22, -41529.61, 157502.77, 45008.72, 13641.20, 167237.05, -9405.30, 23184.12, -799.63, 82528.31, -4780.61, 0.000, 0.000, 0.000, 16:40:45.202
62, -111126.88, -32273.64, 152626.61, 156587.44, -44311.64, -45444.22, -41529.61, 157502.77, 45005.48, 13628.26, 167235.59, -9404.76, 23182.38, -802.94, 82515.95, -4802.21, 0.000, 0.000, 0.000, 16:40:45.202
63, -111130.08, -32279.63, 152630.67, 156584.72, -44310.52, -45453.05, -41521.00, 157511.16, 45005.48, 13628.26, 167235.59, -9404.76, 23182.38, -802.94, 82515.95, -4802.21, 0.000, 0.000, 0.000, 16:40:45.202
64, -111130.08, -32279.63, 152630.67, 156584.72, -44310.52, -45453.05, -41521.00, 157511.16, 45010.49, 13631.55, 167234.25, -9402.26, 23180.95, -801.60, 82519.76, -4800.39, 0.000, 0.000, 0.000, 16:40:45.202
65, -111123.68, -32276.77, 152625.50, 156583.78, -44303.82, -45439.46, -41516.22, 157520.69, 45010.49, 13631.55, 167234.25, -9402.26, 23180.95, -801.60, 82519.76, -4800.39, 0.000, 0.000, 0.000, 16:40:45.203
66, -111123.68, -32276.77, 152625.50, 156583.78, -44303.82, -45439.46, -41516.22, 157520.69, 45011.38, 13642.19, 167230.53, -9393.52, 23174.94, -792.53, 82535.73, -4788.84, 0.000, 0.000, 0.000, 16:40:45.203
67, -111119.23, -32277.73, 152625.50, 156595.67, -44313.34, -45452.11, -41520.11, 157516.73, 45011.38, 13642.19, 167230.53, -9393.52, 23174.94, -792.53, 82535.73, -4788.84, -0.060, 0.908, -0.274, 16:40:45.203
68, -111119.23, -32277.73, 152625.50, 156595.67, -44313.34, -45452.11, -41520.11, 157516.73, 45008.99, 13631.77, 167233.73, -9384.87, 23176.57, -786.18, 82528.00, -4788.26, 0.000, 0.000, 0.000, 16:40:45.204
69, -111118.36, -32280.03, 152628.64, 156609.97, -44320.65, -45445.48, -41523.48, 157508.78, 45008.99, 13631.77, 167233.73, -9384.87, 23176.57, -786.18, 82528.00, -4788.26, 0.000, 0.000, 0.000, 16:40:45.204
70, -111118.36, -32280.03, 152628.64, 156609.97, -44320.65, -45445.48, -41523.48, 157508.78, 45006.24, 13630.36, 167232.86, -9375.15, 23179.83, -779.52, 82523.11, -4786.65, 0.000, 0.000, 0.000, 16:40:45.204
71, -111124.27, -32288.99, 152632.75, 156623.09, -44314.72, -45440.04, -41532.11, 157499.80, 45006.24, 13630.36, 167232.86, -9375.15, 23179.83, -779.52, 82523.11, -4786.65, 0.000, 0.000, 0.000, 16:40:45.204
72, -111124.27, -32288.99, 152632.75, 156623.09, -44314.72, -45440.04, -41532.11, 157499.80, 44994.30, 13642.83, 167206.91, -9382.14, 23165.26, -781.86, 82534.02, -4781.71, 0.000, 0.000, 0.000, 16:40:45.205
73, -111104.13, -32272.90, 152629.06, 156626.38, -44313.89, -45441.00, -41538.35, 157509.86, 44994.30, 13642.83, 167206.91, -9382.14, 23165.26, -781.86, 82534.02, -4781.71, 0.000, 0.000, 0.000, 16:40:45.205
74, -111104.13, -32272.90, 152629.06, 156626.38, -44313.89, -45441.00, -41538.35, 157509.86, 45007.36, 13636.78, 167211.06, -9364.82, 23183.61, -772.39, 82528.80, -4785.91, 0.000, 0.000, 0.000, 16:40:45.205
75, -111124.89, -32293.46, 152631.47, 156622.88, -44313.34, -45440.98, -41536.67, 157511.11, 45007.36, 13636.78, 167211.06, -9364.82, 23183.61, -772.39, 82528.80, -4785.91, 0.000, 0.000, 0.000, 16:40:45.206
76, -111124.89, -32293.46, 152631.47, 156622.88, -44313.34, -45440.98, -41536.67, 157511.11, 44997.66, 13630.50, 167169.61, -9378.90, 23171.67, -798.40, 82528.47, -4793.42, 0.000, 0.000, 0.000, 16:40:45.206
77, -111113.63, -32286.15, 152626.78, 156609.03, -44317.20, -45455.45, -41540.16, 157510.95, 44997.66, 13630.50, 167169.61, -9378.90, 23171.67, -798.40, 82528.47, -4793.42, -0.060, 0.906, -0.276, 16:40:45.206
78, -111113.63, -32286.15, 152626.78, 156609.03, -44317.20, -45455.45, -41540.16, 157510.95, 44998.06, 13635.10, 167148.95, -9391.29, 23167.40, -808.69, 82548.74, -4790.54, 0.000, 0.000, 0.000, 16:40:45.206
79, -111091.41, -32268.27, 152622.16, 156597.72, -44302.81, -45446.28, -41546.93, 157515.05, 44998.06, 13635.10, 167148.95, -9391.29, 23167.40, -808.69, 82548.74, -4790.54, 0.000, 0.000, 0.000, 16:40:45.207
80, -111091.41, -32268.27, 152622.16, 156597.72, -44302.81, -45446.28, -41546.93, 157515.05, 45010.40, 13629.58, 167149.83, -9382.37, 23181.08, -791.01, 82563.12, -4779.90, 0.000, 0.000, 0.000, 16:40:45.207
81, -111096.88, -32275.78, 152621.19, 156598.27, -44295.01, -45450.04, -41541.34, 157525.86, 45010.40, 13629.58, 167149.83, -9382.37, 23181.08, -791.01, 82563.12, -4779.90, 0.000, 0.000, 0.000, 16:40:45.207
82, -111096.88, -32275.78, 152621.19, 156598.27, -44295.01, -45450.04, -41541.34, 157525.86, 45017.04, 13628.35, 167135.00, -9383.87, 23185.60, -781.19, 82573.04, -4772.10, 0.000, 0.000, 0.000, 16:40:45.207
83, -111106.65, -32289.22, 152618.69, 156594.89, -44301.49, -45455.69, -41534.93, 157535.36, 45017.04, 13628.35, 167135.00, -9383.87, 23185.60, -781.19, 82573.04, -4772.10, 0.000, 0.000, 0.000, 16:40:45.207
84, -111106.65, -32289.22, 152618.69, 156594.89, -44301.49, -45455.69, -41534.93, 157535.36, 45014.13, 13617.78, 167126.11, -9385.18, 23186.27, -783.07, 82564.26, -4778.58, 0.000, 0.000, 0.000, 16:40:45.208
85, -111102.43, -32289.44, 152622.53, 156594.78, -44300.57, -45444.83, -41517.05, 157550.89, 45014.13, 13617.78, 167126.11, -9385.18, 23186.27, -783.07, 82564.26, -4778.58, 0.000, 0.000, 0.000, 16:40:45.208
86, -111102.43, -32289.44, 152622.53, 156594.78, -44300.57, -45444.83, -41517.05, 157550.89, 45007.54, 13618.09, 167110.05, -9395.76, 23170.49, -790.11, 82579.66, -4780.48, 0.000, 0.000, 0.000, 16:40:45.208
87, -111093.84, -32280.25, 152621.89, 156595.95, -44301.87, -45442.10, -41519.86, 157557.27, 45007.54, 13618.09, 167110.05, -9395.76, 23170.49, -790.11, 82579.66, -4780.48, -0.062, 0.910, -0.272, 16:40:45.208
88, -111093.84, -32280.25, 152621.89, 156595.95, -44301.87, -45442.10, -41519.86, 157557.27, 45020.70, 13615.30, 167114.91, -9386.37, 23170.29, -776.39, 82585.65, -4781.26, 0.000, 0.000, 0.000, 16:40:45.208
89, -111116.44, -32307.52, 152630.41, 156606.17, -44312.60, -45431.21, -41517.78, 157566.22, 45020.70, 13615.30, 167114.91, -9386.37, 23170.29, -776.39, 82585.65, -4781.26, 0.000, 0.000, 0.000, 16:40:45.208
90, -111116.44, -32307.52, 152630.41, 156606.17, -44312.60, -45431.21, -41517.78, 157566.22, 45013.59, 13603.52, 167099.31, -9384.16, 23163.38, -781.39, 82574.63, -4781.98, 0.000, 0.000, 0.000, 16:40:45.208
91, -111092.95, -32290.69, 152625.59, 156606.08, -44302.43, -45437.92, -41514.21, 157572.31, 45013.59, 13603.52, 167099.31, -9384.16, 23163.38, -781.39, 82574.63, -4781.98, 0.000, 0.000, 0.000, 16:40:45.209
92, -111092.95, -32290.69, 152625.59, 156606.08, -44302.43, -45437.92, -41514.21, 157572.31, 45010.33, 13616.53, 167081.45, -9391.33, 23150.01, -777.59, 82605.56, -4768.52, 0.000, 0.000, 0.000, 16:40:45.209
93, -111071.40, -32270.91, 152619.36, 156611.77, -44301.20, -45439.98, -41523.93, 157570.36, 45010.33, 13616.53, 167081.45, -9391.33, 23150.01, -777.59, 82605.56, -4768.52, 0.000, 0.000, 0.000, 16:40:45.209
94, -111071.40, -32270.91, 152619.36, 156611.77, -44301.20, -45439.98, -41523.93, 157570.36, 45019.65, 13617.42, 167086.44, -9376.00, 23159.63, -763.02, 82617.25, -4765.44, 0.000, 0.000, 0.000, 16:40:45.209
95, -111062.26, -32262.69, 152622.98, 156623.00, -44298.23, -45433.05, -41524.78, 157574.55, 45019.65, 13617.42, 167086.44, -9376.00, 23159.63, -763.02, 82617.25, -4765.44, 0.000, 0.000, 0.000, 16:40:45.209
96, -111062.26, -32262.69, 152622.98, 156623.00, -44298.23, -45433.05, -41524.78, 157574.55, 45010.93, 13628.86, 167073.83, -9377.00, 23154.71, -766.78, 82639.72, -4750.84, 0.000, 0.000, 0.000, 16:40:45.210
97, -111040.98, -32248.09, 152630.52, 156631.41, -44306.48, -45435.20, -41533.77, 157582.92, 45010.93, 13628.86, 167073.83, -9377.00, 23154.71, -766.78, 82639.72, -4750.84, -0.062, 0.904, -0.272, 16:40:45.210
98, -111040.98, -32248.09, 152630.52, 156631.41, -44306.48, -45435.20, -41533.77, 157582.92, 45015.03, 13627.68, 167081.86, -9361.11, 23165.50, -755.42, 82642.60, -4747.42, 0.000, 0.000, 0.000, 16:40:45.210
99, -111041.27, -32257.28, 152640.28, 156632.91, -44310.19, -45433.47, -41531.37, 157593.41, 45015.03, 13627.68, 167081.86, -9361.11, 23165.50, -755.42, 82642.60, -4747.42, 0.000, 0.000, 0.000, 16:40:45.210
100, -111041.27, -32257.28, 152640.28, 156632.91, -44310.19, -45433.47, -41531.37, 157593.41, 45006.02, 13617.49, 167077.03, -9359.73, 23158.15, -761.50, 82633.28, -4759.04, 0.000, 0.000, 0.000, 16:40:45.211
101, -111045.81, -32269.37, 152639.13, 156626.84, -44322.23, -45434.57, -41530.05, 157593.20, 45006.02, 13617.49, 167077.03, -9359.73, 23158.15, -761.50, 82633.28, -4759.04, 0.000, 0.000, 0.000, 16:40:45.211
102, -111045.81, -32269.37, 152639.13, 156626.84, -44322.23, -45434.57, -41530.05, 157593.20, 45001.14, 13605.57, 167068.59, -9366.41, 23156.79, -766.42, 82627.06, -4771.36, 0.000, 0.000, 0.000, 16:40:45.212
103, -111061.84, -32288.68, 152637.83, 156622.20, -44331.38, -45438.79, -41531.53, 157591.39, 45001.14, 13605.57, 167068.59, -9366.41, 23156.79, -766.42, 82627.06, -4771.36, 0.000, 0.000, 0.000, 16:40:45.212
104, -111061.84, -32288.68, 152637.83, 156622.20, -44331.38, -45438.79, -41531.53, 157591.39, 44996.07, 13600.41, 167054.23, -9376.40, 23157.48, -777.30, 82620.13, -4776.84, 0.000, 0.000, 0.000, 16:40:45.212
105, -111033.27, -32266.13, 152626.69, 156601.72, -44308.82, -45457.25, -41532.31, 157586.86, 44996.07, 13600.41, 167054.23, -9376.40, 23157.48, -777.30, 82620.13, -4776.84, 0.000, 0.000, 0.000, 16:40:45.212
106, -111033.27, -32266.13, 152626.69, 156601.72, -44308.82, -45457.25, -41532.31, 157586.86, 45002.38, 13616.66, 167048.94, -9384.49, 23162.22, -786.80, 82652.16, -4768.52, 0.000, 0.000, 0.000, 16:40:45.212
107, -111031.08, -32270.93, 152630.05, 156594.22, -44322.95, -45468.07, -41540.85, 157575.28, 45002.38, 13616.66, 167048.94, -9384.49, 23162.22, -786.80, 82652.16, -4768.52, -0.066, 0.906, -0.266, 16:40:45.213
108, -111031.08, -32270.93, 152630.05, 156594.22, -44322.95, -45468.07, -41540.85, 157575.28, 45005.62, 13604.68, 167056.19, -9378.23, 23172.92, -777.59, 82641.84, -4787.52, 0.000, 0.000, 0.000, 16:40:45.213
109, -111023.52, -32265.68, 152632.34, 156585.67, -44317.83, -45466.26, -41531.95, 157574.89, 45005.62, 13604.68, 167056.19, -9378.23, 23172.92, -777.59, 82641.84, -4787.52, 0.000, 0.000, 0.000, 16:40:45.213
110, -111023.52, -32265.68, 152632.34, 156585.67, -44317.83, -45466.26, -41531.95, 157574.89, 45000.39, 13615.72, 167045.00, -9389.03, 23159.27, -788.35, 82671.27, -4783.81, 0.000, 0.000, 0.000, 16:40:45.213
111, -111016.48, -32262.51, 152629.27, 156582.23, -44322.32, -45466.24, -41543.62, 157563.19, 45000.39, 13615.72, 167045.00, -9389.03, 23159.27, -788.35, 82671.27, -4783.81, 0.000, 0.000, 0.000, 16:40:45.214
112, -111016.48, -32262.51, 152629.27, 156582.23, -44322.32, -45466.24, -41543.62, 157563.19, 45005.01, 13587.33, 167060.58, -9373.99, 23173.88, -768.05, 82648.99, -4803.81, 0.000, 0.000, 0.000, 16:40:45.214
113, -111035.30, -32281.06, 152631.67, 156589.00, -44323.82, -45454.17, -41531.21, 157552.75, 45005.01, 13587.33, 167060.58, -9373.99, 23173.88, -768.05, 82648.99, -4803.81, 0.000, 0.000, 0.000, 16:40:45.214
114, -111035.30, -32281.06, 152631.67, 156589.00, -44323.82, -45454.17, -41531.21, 157552.75, 44997.59, 13588.05, 167047.45, -9378.41, 23167.09, -763.40, 82646.35, -4801.20, 0.000, 0.000, 0.000, 16:40:45.215
115, -111020.13, -32264.21, 152627.09, 156588.36, -44321.18, -45462.64, -41526.43, 157527.47, 44997.59, 13588.05, 167047.45, -9378.41, 23167.09, -763.40, 82646.35, -4801.20, 0.000, 0.000, 0.000, 16:40:45.215
116, -111020.13, -32264.21, 152627.09, 156588.36, -44321.18, -45462.64, -41526.43, 157527.47, 44999.36, 13606.78, 167036.77, -9383.96, 23167.31, -761.95, 82671.27, -4783.68, -0.062, 0.910, -0.266, 16:40:45.215
117, -110995.63, -32239.75, 152615.11, 156583.22, -44312.46, -45456.16, -41530.61, 157502.17, 44999.36, 13606.78, 167036.77, -9383.96, 23167.31, -761.95, 82671.27, -4783.68, 0.000, 0.000, 0.000, 16:40:45.215
118, -110995.63, -32239.75, 152615.11, 156583.22, -44312.46, -45456.16, -41530.61, 157502.17, 45005.32, 13607.81, 167036.17, -9378.93, 23171.99, -756.00, 82687.88, -4773.08, 0.000, 0.000, 0.000, 16:40:45.215
119, -110988.34, -32232.51, 152619.16, 156595.06, -44308.04, -45460.34, -41528.02, 157489.00, 45005.32, 13607.81, 167036.17, -9378.93, 23171.99, -756.00, 82687.88, -4773.08, 0.000, 0.000, 0.000, 16:40:45.216
120, -110988.34, -32232.51, 152619.16, 156595.06, -44308.04, -45460.34, -41528.02, 157489.00, 44999.04, 13599.23, 167037.00, -9370.92, 23169.82, -740.49, 82681.70, -4774.04, 0.000, 0.000, 0.000, 16:40:45.216
121, -110976.97, -32217.40, 152627.73, 156603.00, -44293.27, -45452.38, -41517.07, 157486.83, 44999.04, 13599.23, 167037.00, -9370.92, 23169.82, -740.49, 82681.70, -4774.04, 0.000, 0.000, 0.000, 16:40:45.669
122, -110976.97, -32217.40, 152627.73, 156603.00, -44293.27, -45452.38, -41517.07, 157486.83, 44992.63, 13594.80, 167035.91, -9369.99, 23173.82, -745.68, 82676.53, -4779.79, 0.000, 0.000, 0.000, 16:40:45.669
123, -110970.46, -32209.44, 152631.47, 156607.31, -44281.64, -45454.59, -41514.03, 157487.81, 44992.63, 13594.80, 167035.91, -9369.99, 23173.82, -745.68, 82676.53, -4779.79, 0.000, 0.000, 0.000, 16:40:45.669
124, -110970.46, -32209.44, 152631.47, 156607.31, -44281.64, -45454.59, -41514.03, 157487.81, 44984.14, 13604.61, 167018.11, -9379.24, 23163.65, -759.07, 82693.18, -4776.70, 0.000, 0.000, 0.000, 16:40:45.669
125, -110950.30, -32187.47, 152626.13, 156605.22, -44291.72, -45456.85, -41519.44, 157483.25, 44984.14, 13604.61, 167018.11, -9379.24, 23163.65, -759.07, 82693.18, -4776.70, 0.000, 0.000, 0.000, 16:40:45.670
126, -110950.30, -32187.47, 152626.13, 156605.22, -44291.72, -45456.85, -41519.44, 157483.25, 44992.14, 13616.15, 167013.28, -9378.72, 23166.08, -747.64, 82714.80, -4771.27, -0.060, 0.904, -0.264, 16:40:45.670
127, -110944.09, -32184.07, 152626.20, 156598.31, -44308.51, -45461.93, -41532.98, 157477.00, 44992.14, 13616.15, 167013.28, -9378.72, 23166.08, -747.64, 82714.80, -4771.27, 0.000, 0.000, 0.000, 16:40:45.670
128, -110944.09, -32184.07, 152626.20, 156598.31, -44308.51, -45461.93, -41532.98, 157477.00, 45000.48, 13606.40, 167020.95, -9366.50, 23177.80, -727.64, 82705.45, -4781.73, 0.000, 0.000, 0.000, 16:40:45.670
129, -110943.44, -32185.68, 152626.64, 156594.55, -44303.30, -45461.55, -41522.59, 157477.13, 45000.48, 13606.40, 167020.95, -9366.50, 23177.80, -727.64, 82705.45, -4781.73, 0.000, 0.000, 0.000, 16:40:45.670
130, -110943.44, -32185.68, 152626.64, 156594.55, -44303.30, -45461.55, -41522.59, 157477.13, 44987.80, 13610.38, 166999.64, -9379.26, 23162.84, -744.74, 82712.34, -4777.51, 0.000, 0.000, 0.000, 16:40:45.671
131, -110899.05, -32144.18, 152619.03, 156571.69, -44294.18, -45474.53, -41525.76, 157470.27, 44987.80, 13610.38, 166999.64, -9379.26, 23162.84, -744.74, 82712.34, -4777.51, 0.000, 0.000, 0.000, 16:40:45.671
132, -110899.05, -32144.18, 152619.03, 156571.69, -44294.18, -45474.53, -41525.76, 157470.27, 44999.94, 13621.82, 167007.77, -9375.71, 23176.37, -745.21, 82739.02, -4784.84, 0.000, 0.000, 0.000, 16:40:45.671
133, -110910.49, -32158.48, 152626.64, 156575.34, -44296.77, -45469.26, -41527.08, 157463.83, 44999.94, 13621.82, 167007.77, -9375.71, 23176.37, -745.21, 82739.02, -4784.84, 0.000, 0.000, 0.000, 16:40:45.671
134, -110910.49, -32158.48, 152626.64, 156575.34, -44296.77, -45469.26, -41527.08, 157463.83, 44996.94, 13612.95, 167000.98, -9374.70, 23167.81, -734.10, 82730.73, -4799.52, 0.000, 0.000, 0.000, 16:40:45.671
135, -110911.56, -32160.47, 152614.59, 156571.22, -44297.51, -45472.23, -41522.81, 157456.02, 44996.94, 13612.95, 167000.98, -9374.70, 23167.81, -734.10, 82730.73, -4799.52, 0.000, 0.000, 0.000, 16:40:45.671
136, -110911.56, -32160.47, 152614.59, 156571.22, -44297.51, -45472.23, -41522.81, 157456.02, 45006.84, 13603.99, 167003.72, -9365.81, 23171.67, -735.48, 82728.12, -4796.30, -0.058, 0.906, -0.262, 16:40:45.672
137, -110930.30, -32182.53, 152614.69, 156577.30, -44302.52, -45462.71, -41516.22, 157459.42, 45006.84, 13603.99, 167003.72, -9365.81, 23171.67, -735.48, 82728.12, -4796.30, 0.000, 0.000, 0.000, 16:40:45.672
138, -110930.30, -32182.53, 152614.69, 156577.30, -44302.52, -45462.71, -41516.22, 157459.42, 45000.81, 13593.88, 166992.31, -9371.42, 23160.23, -748.07, 82715.09, -4795.30, 0.000, 0.000, 0.000, 16:40:45.672
139, -110919.68, -32174.24, 152616.03, 156580.72, -44316.82, -45455.20, -41497.27, 157469.00, 45000.81, 13593.88, 166992.31, -9371.42, 23160.23, -748.07, 82715.09, -4795.30, 0.000, 0.000, 0.000, 16:40:45.672
140, -110919.68, -32174.24, 152616.03, 156580.72, -44316.82, -45455.20, -41497.27, 157469.00, 45006.49, 13598.06, 166999.33, -9363.46, 23168.61, -735.39, 82724.95, -4779.56, 0.000, 0.000, 0.000, 16:40:45.672
141, -110905.66, -32163.69, 152623.22, 156590.19, -44304.40, -45459.27, -41494.65, 157471.30, 45006.49, 13598.06, 166999.33, -9363.46, 23168.61, -735.39, 82724.95, -4779.56, 0.000, 0.000, 0.000, 16:40:45.672
142, -110905.66, -32163.69, 152623.22, 156590.19, -44304.40, -45459.27, -41494.65, 157471.30, 44999.27, 13609.84, 166988.41, -9373.14, 23159.45, -745.68, 82747.07, -4764.23, 0.000, 0.000, 0.000, 16:40:45.673
143, -110874.93, -32138.59, 152619.47, 156592.42, -44300.57, -45464.63, -41499.90, 157467.92, 44999.27, 13609.84, 166988.41, -9373.14, 23159.45, -745.68, 82747.07, -4764.23, 0.000, 0.000, 0.000, 16:40:45.673
144, -110874.93, -32138.59, 152619.47, 156592.42, -44300.57, -45464.63, -41499.90, 157467.92, 45005.46, 13617.87, 166989.39, -9373.23, 23160.65, -743.40, 82761.47, -4759.29, 0.000, 0.000, 0.000, 16:40:45.673
145, -110864.34, -32132.33, 152618.33, 156591.63, -44314.61, -45461.30, -41505.04, 157468.28, 45005.46, 13617.87, 166989.39, -9373.23, 23160.65, -743.40, 82761.47, -4759.29, 0.000, 0.000, 0.000, 16:40:45.673
146, -110864.34, -32132.33, 152618.33, 156591.63, -44314.61, -45461.30, -41505.04, 157468.28, 45007.61, 13610.51, 166996.81, -9375.51, 23165.35, -743.31, 82762.12, -4764.23, -0.060, 0.904, -0.268, 16:40:45.673
147, -110863.76, -32136.67, 152622.20, 156587.73, -44317.68, -45459.09, -41507.93, 157471.66, 45007.61, 13610.51, 166996.81, -9375.51, 23165.35, -743.31, 82762.12, -4764.23, 0.000, 0.000, 0.000, 16:40:45.673
148, -110863.76, -32136.67, 152622.20, 156587.73, -44317.68, -45459.09, -41507.93, 157471.66, 45001.32, 13596.50, 166989.16, -9387.40, 23155.04, -757.72, 82758.29, -4774.76, 0.000, 0.000, 0.000, 16:40:45.674
149, -110853.52, -32131.23, 152615.36, 156578.38, -44316.85, -45462.48, -41520.62, 157460.75, 45001.32, 13596.50, 166989.16, -9387.40, 23155.04, -757.72, 82758.29, -4774.76, 0.000, 0.000, 0.000, 16:40:45.674
150, -110853.52, -32131.23, 152615.36, 156578.38, -44316.85, -45462.48, -41520.62, 157460.75, 45005.32, 13590.33, 166990.48, -9388.36, 23162.73, -754.17, 82762.61, -4781.26, 0.000, 0.000, 0.000, 16:40:45.674
151, -110848.91, -32129.83, 152618.02, 156579.33, -44313.49, -45459.94, -41524.67, 157463.88, 45005.32, 13590.33, 166990.48, -9388.36, 23162.73, -754.17, 82762.61, -4781.26, 0.000, 0.000, 0.000, 16:40:45.674
152, -110848.91, -32129.83, 152618.02, 156579.33, -44313.49, -45459.94, -41524.67, 157463.88, 44999.78, 13584.16, 166988.02, -9387.69, 23161.05, -763.29, 82760.91, -4787.61, 0.000, 0.000, 0.000, 16:40:45.674
153, -110839.97, -32126.23, 152623.66, 156574.09, -44315.73, -45459.73, -41524.62, 157464.33, 44999.78, 13584.16, 166988.02, -9387.69, 23161.05, -763.29, 82760.91, -4787.61, 0.000, 0.000, 0.000, 16:40:45.674
154, -110839.97, -32126.23, 152623.66, 156574.09, -44315.73, -45459.73, -41524.62, 157464.33, 45012.19, 13586.26, 167000.84, -9374.75, 23173.44, -753.54, 82758.11, -4786.65, 0.000, 0.000, 0.000, 16:40:45.675
155, -110872.27, -32160.92, 152629.33, 156576.69, -44326.77, -45464.56, -41527.77, 157463.00, 45012.19, 13586.26, 167000.84, -9374.75, 23173.44, -753.54, 82758.11, -4786.65, 0.000, 0.000, 0.000, 16:40:45.675
156, -110872.27, -32160.92, 152629.33, 156576.69, -44326.77, -45464.56, -41527.77, 157463.00, 45004.50, 13576.43, 166997.41, -9377.76, 23170.09, -758.08, 82723.89, -4800.93, -0.058, 0.906, -0.266, 16:40:45.675
157, -110861.90, -32155.82, 152621.42, 156563.42, -44313.29, -45477.13, -41517.38, 157462.31, 45004.50, 13576.43, 166997.41, -9377.76, 23170.09, -758.08, 82723.89, -4800.93, 0.000, 0.000, 0.000, 16:40:45.675
158, -110861.90, -32155.82, 152621.42, 156563.42, -44313.29, -45477.13, -41517.38, 157462.31, 45005.21, 13596.77, 166987.28, -9387.80, 23154.26, -769.64, 82745.04, -4788.91, 0.000, 0.000, 0.000, 16:40:45.675
159, -110855.82, -32152.38, 152616.25, 156568.05, -44328.80, -45475.16, -41520.64, 157462.98, 45005.21, 13596.77, 166987.28, -9387.80, 23154.26, -769.64, 82745.04, -4788.91, 0.000, 0.000, 0.000, 16:40:45.676
160, -110855.82, -32152.38, 152616.25, 156568.05, -44328.80, -45475.16, -41520.64, 157462.98, 45001.50, 13593.88, 166990.30, -9385.92, 23147.38, -772.79, 82740.08, -4791.25, 0.000, 0.000, 0.000, 16:40:45.676
161, -110830.20, -32129.47, 152605.30, 156565.97, -44321.59, -45477.35, -41514.34, 157463.05, 45001.50, 13593.88, 166990.30, -9385.92, 23147.38, -772.79, 82740.08, -4791.25, 0.000, 0.000, 0.000, 16:40:45.676
162, -110830.20, -32129.47, 152605.30, 156565.97, -44321.59, -45477.35, -41514.34, 157463.05, 45007.89, 13603.38, 166991.31, -9382.95, 23148.31, -769.35, 82766.05, -4775.81, 0.000, 0.000, 0.000, 16:40:45.676
163, -110837.40, -32137.83, 152611.97, 156586.19, -44334.15, -45461.17, -41514.32, 157476.34, 45007.89, 13603.38, 166991.31, -9382.95, 23148.31, -769.35, 82766.05, -4775.81, 0.000, 0.000, 0.000, 16:40:45.676
164, -110837.40, -32137.83, 152611.97, 156586.19, -44334.15, -45461.17, -41514.32, 157476.34, 45005.37, 13592.52, 166997.64, -9370.66, 23146.62, -749.86, 82752.34, -4771.36, 0.000, 0.000, 0.000, 16:40:45.677
165, -110811.74, -32114.94, 152602.84, 156585.56, -44325.36, -45470.42, -41503.10, 157480.69, 45005.37, 13592.52, 166997.64, -9370.66, 23146.62, -749.86, 82752.34, -4771.36, 0.000, 0.000, 0.000, 16:40:45.677
166, -110811.74, -32114.94, 152602.84, 156585.56, -44325.36, -45470.42, -41503.10, 157480.69, 45014.27, 13610.94, 166993.94, -9377.29, 23144.85, -755.35, 82790.26, -4759.29, -0.056, 0.906, -0.266, 16:40:45.677
167, -110811.02, -32117.06, 152606.28, 156591.22, -44343.25, -45461.93, -41514.81, 157480.11, 45014.27, 13610.94, 166993.94, -9377.29, 23144.85, -755.35, 82790.26, -4759.29, 0.000, 0.000, 0.000, 16:40:45.677
168, -110811.02, -32117.06, 152606.28, 156591.22, -44343.25, -45461.93, -41514.81, 157480.11, 45010.71, 13590.91, 166997.25, -9371.75, 23150.51, -752.25, 82772.20, -4773.68, 0.000, 0.000, 0.000, 16:40:45.677
169, -110803.20, -32113.35, 152612.00, 156584.17, -44351.18, -45467.11, -41513.11, 157479.86, 45010.71, 13590.91, 166997.25, -9371.75, 23150.51, -752.25, 82772.20, -4773.68, 0.000, 0.000, 0.000, 16:40:45.678
170, -110803.20, -32113.35, 152612.00, 156584.17, -44351.18, -45467.11, -41513.11, 157479.86, 45010.54, 13586.62, 166988.63, -9381.59, 23144.27, -761.23, 82778.05, -4774.40, 0.000, 0.000, 0.000, 16:40:45.678
171, -110798.71, -32114.49, 152605.92, 156569.45, -44350.13, -45463.89, -41518.70, 157472.80, 45010.54, 13586.62, 166988.63, -9381.59, 23144.27, -761.23, 82778.05, -4774.40, 0.000, 0.000, 0.000, 16:40:45.678
172, -110798.71, -32114.49, 152605.92, 156569.45, -44350.13, -45463.89, -41518.70, 157472.80, 45016.21, 13588.90, 166982.64, -9389.92, 23148.36, -766.40, 82791.08, -4769.35, 0.000, 0.000, 0.000, 16:40:45.678
173, -110792.88, -32113.78, 152603.63, 156561.83, -44347.09, -45478.98, -41533.79, 157467.81, 45016.21, 13588.90, 166982.64, -9389.92, 23148.36, -766.40, 82791.08, -4769.35, 0.000, 0.000, 0.000, 16:40:45.678
174, -110792.88, -32113.78, 152603.63, 156561.83, -44347.09, -45478.98, -41533.79, 157467.81, 45017.57, 13584.70, 166988.47, -9387.33, 23144.81, -763.47, 82787.73, -4775.00, 0.000, 0.000, 0.000, 16:40:45.678
175, -110794.69, -32119.12, 152600.92, 156554.56, -44337.01, -45472.36, -41542.50, 157464.53, 45017.57, 13584.70, 166988.47, -9387.33, 23144.81, -763.47, 82787.73, -4775.00, 0.000, 0.000, 0.000, 16:40:45.679
176, -110794.69, -32119.12, 152600.92, 156554.56, -44337.01, -45472.36, -41542.50, 157464.53, 45020.28, 13588.27, 166988.83, -9388.67, 23140.47, -765.79, 82793.05, -4775.32, -0.060, 0.904, -0.270, 16:40:45.679
177, -110790.89, -32115.79, 152600.05, 156545.88, -44350.60, -45471.96, -41546.39, 157468.59, 45020.28, 13588.27, 166988.83, -9388.67, 23140.47, -765.79, 82793.05, -4775.32, 0.000, 0.000, 0.000, 16:40:45.679
178, -110790.89, -32115.79, 152600.05, 156545.88, -44350.60, -45471.96, -41546.39, 157468.59, 45028.50, 13585.14, 167002.75, -9380.78, 23151.69, -766.82, 82791.04, -4784.23, 0.000, 0.000, 0.000, 16:40:45.679
179, -110798.48, -32124.46, 152608.08, 156542.72, -44351.07, -45486.27, -41541.74, 157467.83, 45028.50, 13585.14, 167002.75, -9380.78, 23151.69, -766.82, 82791.04, -4784.23, 0.000, 0.000, 0.000, 16:40:45.679
180, -110798.48, -32124.46, 152608.08, 156542.72, -44351.07, -45486.27, -41541.74, 157467.83, 45014.40, 13581.75, 166995.22, -9395.44, 23143.85, -790.69, 82792.76, -4795.19, 0.000, 0.000, 0.000, 16:40:45.680
181, -110784.70, -32114.87, 152612.36, 156544.80, -44354.46, -45484.21, -41539.17, 157468.53, 45014.40, 13581.75, 166995.22, -9395.44, 23143.85, -790.69, 82792.76, -4795.19, 0.000, 0.000, 0.000, 16:40:45.680
182, -110784.70, -32114.87, 152612.36, 156544.80, -44354.46, -45484.21, -41539.17, 157468.53, 45013.48, 13587.29, 166997.36, -9392.31, 23139.15, -790.22, 82805.97, -4798.67, 0.000, 0.000, 0.000, 16:40:45.680
183, -110775.47, -32110.80, 152609.80, 156556.59, -44362.64, -45490.43, -41541.68, 157468.33, 45013.48, 13587.29, 166997.36, -9392.31, 23139.15, -790.22, 82805.97, -4798.67, 0.000, 0.000, 0.000, 16:40:45.680
184, -110775.47, -32110.80, 152609.80, 156556.59, -44362.64, -45490.43, -41541.68, 157468.33, 45014.60, 13592.59, 167003.27, -9381.72, 23136.42, -780.79, 82814.75, -4790.31, 0.000, 0.000, 0.000, 16:40:45.681
185, -110745.34, -32084.61, 152603.53, 156565.50, -44347.45, -45483.41, -41530.19, 157467.66, 45014.60, 13592.59, 167003.27, -9381.72, 23136.42, -780.79, 82814.75, -4790.31, 0.000, 0.000, 0.000, 16:40:45.681
186, -110745.34, -32084.61, 152603.53, 156565.50, -44347.45, -45483.41, -41530.19, 157467.66, 45015.76, 13609.49, 166999.00, -9380.16, 23127.08, -776.90, 82846.56, -4768.88, -0.058, 0.904, -0.272, 16:40:45.681
187, -110737.06, -32086.02, 152594.75, 156580.67, -44364.97, -45473.21, -41531.04, 157464.33, 45015.76, 13609.49, 166999.00, -9380.16, 23127.08, -776.90, 82846.56, -4768.88, 0.000, 0.000, 0.000, 16:40:45.681
188, -110737.06, -32086.02, 152594.75, 156580.67, -44364.97, -45473.21, -41531.04, 157464.33, 45026.52, 13591.42, 167014.75, -9360.11, 23143.80, -744.89, 82826.33, -4773.08, 0.000, 0.000, 0.000, 16:40:45.682
189, -110770.62, -32121.20, 152598.89, 156591.02, -44367.77, -45458.48, -41527.08, 157481.84, 45026.52, 13591.42, 167014.75, -9360.11, 23143.80, -744.89, 82826.33, -4773.08, 0.000, 0.000, 0.000, 16:40:45.682
190, -110770.62, -32121.20, 152598.89, 156591.02, -44367.77, -45458.48, -41527.08, 157481.84, 45010.55, 13579.13, 166997.72, -9373.20, 23128.82, -764.61, 82804.56, -4780.90, 0.000, 0.000, 0.000, 16:40:45.682
191, -110764.02, -32114.52, 152599.28, 156582.41, -44360.99, -45461.73, -41526.77, 157486.16, 45010.55, 13579.13, 166997.72, -9373.20, 23128.82, -764.61, 82804.56, -4780.90, 0.000, 0.000, 0.000, 16:40:45.682
192, -110764.02, -32114.52, 152599.28, 156582.41, -44360.99, -45461.73, -41526.77, 157486.16, 45004.95, 13586.62, 166995.75, -9376.76, 23134.84, -779.49, 82809.14, -4783.56, 0.000, 0.000, 0.000, 16:40:45.683
193, -110754.48, -32109.87, 152604.30, 156580.67, -44366.98, -45457.86, -41526.37, 157480.73, 45004.95, 13586.62, 166995.75, -9376.76, 23134.84, -779.49, 82809.14, -4783.56, 0.000, 0.000, 0.000, 16:40:45.683
194, -110754.48, -32109.87, 152604.30, 156580.67, -44366.98, -45457.86, -41526.37, 157480.73, 45003.96, 13586.84, 167002.27, -9377.94, 23142.44, -778.29, 82815.29, -4782.83, 0.000, 0.000, 0.000, 16:40:45.683
195, -110747.91, -32105.35, 152610.95, 156580.33, -44369.60, -45476.70, -41531.55, 157480.00, 45003.96, 13586.84, 167002.27, -9377.94, 23142.44, -778.29, 82815.29, -4782.83, 0.000, 0.000, 0.000, 16:40:45.683
196, -110747.91, -32105.35, 152610.95, 156580.33, -44369.60, -45476.70, -41531.55, 157480.00, 44998.11, 13589.77, 167000.52, -9378.97, 23139.60, -784.84, 82819.49, -4780.57, -0.052, 0.904, -0.276, 16:40:45.684
197, -110714.73, -32076.32, 152618.33, 156582.08, -44360.59, -45473.37, -41527.44, 157484.28, 44998.11, 13589.77, 167000.52, -9378.97, 23139.60, -784.84, 82819.49, -4780.57, 0.000, 0.000, 0.000, 16:40:45.684
198, -110714.73, -32076.32, 152618.33, 156582.08, -44360.59, -45473.37, -41527.44, 157484.28, 44990.62, 13610.60, 166986.08, -9391.04, 23115.44, -806.03, 82862.95, -4769.79, 0.000, 0.000, 0.000, 16:40:45.684
199, -110669.74, -32036.80, 152615.45, 156576.67, -44365.91, -45483.70, -41544.00, 157483.45, 44990.62, 13610.60, 166986.08, -9391.04, 23115.44, -806.03, 82862.95, -4769.79, 0.000, 0.000, 0.000, 16:40:45.684
200, -110669.74, -32036.80, 152615.45, 156576.67, -44365.91, -45483.70, -41544.00, 157483.45, 45000.52, 13607.00, 166997.83, -9383.82, 23117.67, -800.62, 82883.87, -4781.31, 0.000, 0.000, 0.000, 16:40:45.685
201, -110673.01, -32045.87, 152620.98, 156573.89, -44389.31, -45485.04, -41549.79, 157481.02, 45000.52, 13607.00, 166997.83, -9383.82, 23117.67, -800.62, 82883.87, -4781.31, 0.000, 0.000, 0.000, 16:40:45.685
202, -110673.01, -32045.87, 152620.98, 156573.89, -44389.31, -45485.04, -41549.79, 157481.02, 45004.57, 13580.92, 167011.61, -9376.51, 23130.54, -782.53, 82860.64, -4807.73, 0.000, 0.000, 0.000, 16:40:45.685
203, -110696.32, -32071.44, 152640.95, 156579.86, -44369.33, -45479.59, -41539.17, 157489.02, 45004.57, 13580.92, 167011.61, -9376.51, 23130.54, -782.53, 82860.64, -4807.73, 0.000, 0.000, 0.000, 16:40:45.685
204, -110696.32, -32071.44, 152640.95, 156579.86, -44369.33, -45479.59, -41539.17, 157489.02, 44995.94, 13572.16, 166997.86, -9389.88, 23124.18, -793.87, 82852.73, -4802.41, 0.000, 0.000, 0.000, 16:40:45.686
205, -110685.84, -32066.04, 152636.73, 156573.30, -44360.75, -45481.46, -41537.79, 157492.11, 44995.94, 13572.16, 166997.86, -9389.88, 23124.18, -793.87, 82852.73, -4802.41, 0.000, 0.000, 0.000, 16:40:45.686
206, -110685.84, -32066.04, 152636.73, 156573.30, -44360.75, -45481.46, -41537.79, 157492.11, 45008.16, 13576.34, 167005.33, -9379.98, 23129.16, -784.03, 82869.05, -4785.17, -0.054, 0.908, -0.278, 16:40:45.686
207, -110694.26, -32080.34, 152630.05, 156577.50, -44381.49, -45472.30, -41538.61, 157500.16, 45008.16, 13576.34, 167005.33, -9379.98, 23129.16, -784.03, 82869.05, -4785.17, 0.000, 0.000, 0.000, 16:40:45.686
208, -110694.26, -32080.34, 152630.05, 156577.50, -44381.49, -45472.30, -41538.61, 157500.16, 45007.00, 13569.10, 167011.11, -9372.47, 23129.29, -785.91, 82858.80, -4786.65, 0.000, 0.000, 0.000, 16:40:45.687
209, -110689.39, -32081.70, 152620.25, 156580.52, -44380.35, -45487.03, -41537.59, 157504.31, 45007.00, 13569.10, 167011.11, -9372.47, 23129.29, -785.91, 82858.80, -4786.65, 0.000, 0.000, 0.000, 16:40:45.687
210, -110689.39, -32081.70, 152620.25, 156580.52, -44380.35, -45487.03, -41537.59, 157504.31, 45011.20, 13571.71, 167020.98, -9363.84, 23121.74, -775.94, 82861.34, -4776.99, 0.000, 0.000, 0.000, 16:40:45.687
211, -110687.87, -32082.93, 152612.20, 156586.50, -44369.02, -45477.80, -41533.47, 157504.69, 45011.20, 13571.71, 167020.98, -9363.84, 23121.74, -775.94, 82861.34, -4776.99, 0.000, 0.000, 0.000, 16:40:45.688
212, -110687.87, -32082.93, 152612.20, 156586.50, -44369.02, -45477.80, -41533.47, 157504.69, 45003.22, 13583.83, 167005.33, -9373.23, 23104.66, -795.34, 82887.13, -4756.92, 0.000, 0.000, 0.000, 16:40:45.688
213, -110658.34, -32057.43, 152601.55, 156578.69, -44372.10, -45482.36, -41540.43, 157501.58, 45003.22, 13583.83, 167005.33, -9373.23, 23104.66, -795.34, 82887.13, -4756.92, 0.000, 0.000, 0.000, 16:40:45.688
214, -110658.34, -32057.43, 152601.55, 156578.69, -44372.10, -45482.36, -41540.43, 157501.58, 45018.38, 13577.66, 167031.70, -9349.71, 23124.13, -775.43, 82889.72, -4763.45, 0.000, 0.000, 0.000, 16:40:45.688
215, -110675.24, -32078.02, 152605.25, 156581.97, -44381.49, -45478.78, -41539.87, 157501.30, 45018.38, 13577.66, 167031.70, -9349.71, 23124.13, -775.43, 82889.72, -4763.45, -0.062, 0.904, -0.276, 16:40:45.688
216, -110675.24, -32078.02, 152605.25, 156581.97, -44381.49, -45478.78, -41539.87, 157501.30, 45015.90, 13568.76, 167026.11, -9358.97, 23123.19, -781.31, 82882.55, -4764.14, 0.000, 0.000, 0.000, 16:40:45.688
217, -110685.05, -32092.46, 152608.61, 156580.14, -44390.38, -45474.96, -41541.70, 157502.95, 45015.90, 13568.76, 167026.11, -9358.97, 23123.19, -781.31, 82882.55, -4764.14, 0.000, 0.000, 0.000, 16:40:45.689
218, -110685.05, -32092.46, 152608.61, 156580.14, -44390.38, -45474.96, -41541.70, 157502.95, 45013.68, 13566.59, 167021.70, -9365.92, 23121.00, -784.14, 82873.78, -4764.59, 0.000, 0.000, 0.000, 16:40:45.689
219, -110675.91, -32088.97, 152608.20, 156572.11, -44376.97, -45471.14, -41536.69, 157508.00, 45013.68, 13566.59, 167021.70, -9365.92, 23121.00, -784.14, 82873.78, -4764.59, 0.000, 0.000, 0.000, 16:40:45.689
220, -110675.91, -32088.97, 152608.20, 156572.11, -44376.97, -45471.14, -41536.69, 157508.00, 45017.91, 13577.50, 167021.59, -9366.57, 23121.83, -787.59, 82886.68, -4758.02, 0.000, 0.000, 0.000, 16:40:45.689
221, -110670.61, -32092.30, 152612.98, 156569.69, -44385.06, -45457.68, -41538.50, 157497.16, 45017.91, 13577.50, 167021.59, -9366.57, 23121.83, -787.59, 82886.68, -4758.02, 0.000, 0.000, 0.000, 16:40:45.689
222, -110670.61, -32092.30, 152612.98, 156569.69, -44385.06, -45457.68, -41538.50, 157497.16, 45012.81, 13576.34, 167018.75, -9365.56, 23120.06, -786.13, 82891.53, -4767.38, 0.000, 0.000, 0.000, 16:40:45.689
223, -110663.95, -32093.28, 152618.88, 156567.95, -44392.15, -45483.65, -41538.37, 157493.81, 45012.81, 13576.34, 167018.75, -9365.56, 23120.06, -786.13, 82891.53, -4767.38, 0.000, 0.000, 0.000, 16:40:45.690
224, -110663.95, -32093.28, 152618.88, 156567.95, -44392.15, -45483.65, -41538.37, 157493.81, 45012.68, 13569.05, 167018.80, -9366.99, 23124.40, -790.89, 82894.91, -4773.62, 0.000, 0.000, 0.000, 16:40:45.690
225, -110656.09, -32090.69, 152620.64, 156569.98, -44404.11, -45482.67, -41539.55, 157492.05, 45012.68, 13569.05, 167018.80, -9366.99, 23124.40, -790.89, 82894.91, -4773.62, -0.066, 0.902, -0.270, 16:40:45.690
226, -110656.09, -32090.69, 152620.64, 156569.98, -44404.11, -45482.67, -41539.55, 157492.05, 45012.99, 13568.42, 167018.67, -9364.84, 23127.28, -791.94, 82905.27, -4771.25, 0.000, 0.000, 0.000, 16:40:45.690
227, -110636.91, -32080.70, 152623.73, 156562.97, -44393.69, -45489.89, -41539.02, 157493.53, 45012.99, 13568.42, 167018.67, -9364.84, 23127.28, -791.94, 82905.27, -4771.25, 0.000, 0.000, 0.000, 16:40:45.690
228, -110636.91, -32080.70, 152623.73, 156562.97, -44393.69, -45489.89, -41539.02, 157493.53, 45016.66, 13563.93, 167029.47, -9361.29, 23132.74, -793.04, 82914.11, -4785.04, 0.000, 0.000, 0.000, 16:40:45.690
229, -110641.94, -32090.29, 152631.16, 156568.25, -44391.75, -45486.71, -41541.18, 157492.84, 45016.66, 13563.93, 167029.47, -9361.29, 23132.74, -793.04, 82914.11, -4785.04, 0.000, 0.000, 0.000, 16:40:45.691
230, -110641.94, -32090.29, 152631.16, 156568.25, -44391.75, -45486.71, -41541.18, 157492.84, 45008.93, 13558.19, 167033.19, -9364.44, 23125.63, -799.12, 82910.09, -4792.62, 0.000, 0.000, 0.000, 16:40:45.691
231, -110624.84, -32078.24, 152630.98, 156577.94, -44385.04, -45485.48, -41537.52, 157505.98, 45008.93, 13558.19, 167033.19, -9364.44, 23125.63, -799.12, 82910.09, -4792.62, 0.000, 0.000, 0.000, 16:40:45.691
232, -110624.84, -32078.24, 152630.98, 156577.94, -44385.04, -45485.48, -41537.52, 157505.98, 45011.47, 13565.61, 167039.61, -9357.47, 23128.06, -791.05, 82918.20, -4788.21, 0.000, 0.000, 0.000, 16:40:45.691
233, -110625.17, -32082.40, 152635.00, 156590.66, -44388.06, -45477.06, -41538.48, 157515.23, 45011.47, 13565.61, 167039.61, -9357.47, 23128.06, -791.05, 82918.20, -4788.21, 0.000, 0.000, 0.000, 16:40:45.691
234, -110625.17, -32082.40, 152635.00, 156590.66, -44388.06, -45477.06, -41538.48, 157515.23, 45008.79, 13565.50, 167040.08, -9352.82, 23120.00, -790.94, 82914.98, -4787.79, 0.000, 0.000, 0.000, 16:40:45.691
235, -110617.48, -32078.04, 152624.44, 156585.66, -44400.66, -45472.45, -41541.59, 157515.73, 45008.79, 13565.50, 167040.08, -9352.82, 23120.00, -790.94, 82914.98, -4787.79, -0.062, 0.902, -0.266, 16:40:45.691
236, -110617.48, -32078.04, 152624.44, 156585.66, -44400.66, -45472.45, -41541.59, 157515.73, 45006.20, 13575.78, 167035.09, -9358.97, 23105.11, -797.38, 82926.69, -4777.42, 0.000, 0.000, 0.000, 16:40:45.692
237, -110600.72, -32064.45, 152609.81, 156581.61, -44406.52, -45467.52, -41543.31, 157523.17, 45006.20, 13575.78, 167035.09, -9358.97, 23105.11, -797.38, 82926.69, -4777.42, 0.000, 0.000, 0.000, 16:40:45.692
238, -110600.72, -32064.45, 152609.81, 156581.61, -44406.52, -45467.52, -41543.31, 157523.17, 45013.48, 13588.38, 167044.23, -9354.34, 23109.42, -783.72, 82938.96, -4764.50, 0.000, 0.000, 0.000, 16:40:45.692
239, -110603.89, -32073.28, 152604.41, 156578.61, -44410.43, -45469.84, -41542.10, 157524.41, 45013.48, 13588.38, 167044.23, -9354.34, 23109.42, -783.72, 82938.96, -4764.50, 0.000, 0.000, 0.000, 16:40:45.692
240, -110603.89, -32073.28, 152604.41, 156578.61, -44410.43, -45469.84, -41542.10, 157524.41, 45015.72, 13592.77, 167039.47, -9360.08, 23106.67, -793.91, 82940.95, -4766.64, 0.000, 0.000, 0.000, 16:40:45.692
241, -110608.23, -32082.62, 152599.42, 156575.17, -44407.33, -45462.87, -41542.01, 157531.48, 45015.72, 13592.77, 167039.47, -9360.08, 23106.67, -793.91, 82940.95, -4766.64, 0.000, 0.000, 0.000, 16:40:46.149
242, -110608.23, -32082.62, 152599.42, 156575.17, -44407.33, -45462.87, -41542.01, 157531.48, 45014.47, 13581.48, 167042.05, -9361.94, 23110.85, -793.55, 82924.43, -4777.08, 0.000, 0.000, 0.000, 16:40:46.149
243, -110613.39, -32092.95, 152599.42, 156565.52, -44401.27, -45470.31, -41539.13, 157536.44, 45014.47, 13581.48, 167042.05, -9361.94, 23110.85, -793.55, 82924.43, -4777.08, 0.000, 0.000, 0.000, 16:40:46.149
244, -110613.39, -32092.95, 152599.42, 156565.52, -44401.27, -45470.31, -41539.13, 157536.44, 45009.59, 13583.07, 167027.27, -9378.84, 23103.95, -819.88, 82933.48, -4774.38, 0.000, 0.000, 0.000, 16:40:46.149
245, -110608.20, -32094.20, 152595.59, 156551.13, -44415.44, -45482.29, -41541.09, 157524.22, 45009.59, 13583.07, 167027.27, -9378.84, 23103.95, -819.88, 82933.48, -4774.38, -0.058, 0.906, -0.270, 16:40:46.150
246, -110608.20, -32094.20, 152595.59, 156551.13, -44415.44, -45482.29, -41541.09, 157524.22, 45013.15, 13572.05, 167027.14, -9378.61, 23109.85, -822.14, 82935.88, -4785.15, 0.000, 0.000, 0.000, 16:40:46.150
247, -110616.50, -32105.11, 152602.55, 156551.59, -44412.96, -45481.95, -41548.43, 157521.55, 45013.15, 13572.05, 167027.14, -9378.61, 23109.85, -822.14, 82935.88, -4785.15, 0.000, 0.000, 0.000, 16:40:46.150
248, -110616.50, -32105.11, 152602.55, 156551.59, -44412.96, -45481.95, -41548.43, 157521.55, 45016.39, 13558.86, 167027.89, -9378.61, 23116.26, -821.36, 82926.13, -4795.77, 0.000, 0.000, 0.000, 16:40:46.150
249, -110614.20, -32105.13, 152599.83, 156543.19, -44393.71, -45485.46, -41545.75, 157520.20, 45016.39, 13558.86, 167027.89, -9378.61, 23116.26, -821.36, 82926.13, -4795.77, 0.000, 0.000, 0.000, 16:40:46.150
250, -110614.20, -32105.13, 152599.83, 156543.19, -44393.71, -45485.46, -41545.75, 157520.20, 45019.92, 13571.26, 167025.13, -9378.08, 23116.02, -821.99, 82945.71, -4784.97, 0.000, 0.000, 0.000, 16:40:46.151
251, -110619.43, -32113.09, 152601.80, 156545.78, -44403.57, -45497.55, -41551.46, 157520.72, 45019.92, 13571.26, 167025.13, -9378.08, 23116.02, -821.99, 82945.71, -4784.97, 0.000, 0.000, 0.000, 16:40:46.151
252, -110619.43, -32113.09, 152601.80, 156545.78, -44403.57, -45497.55, -41551.46, 157520.72, 45017.08, 13564.16, 167021.27, -9379.55, 23114.92, -817.40, 82945.60, -4793.71, 0.000, 0.000, 0.000, 16:40:46.151
253, -110591.76, -32086.87, 152603.22, 156545.13, -44392.08, -45511.26, -41552.67, 157519.53, 45017.08, 13564.16, 167021.27, -9379.55, 23114.92, -817.40, 82945.60, -4793.71, 0.000, 0.000, 0.000, 16:40:46.151
254, -110591.76, -32086.87, 152603.22, 156545.13, -44392.08, -45511.26, -41552.67, 157519.53, 45021.24, 13571.67, 167029.28, -9371.46, 23114.34, -818.79, 82974.79, -4789.35, 0.000, 0.000, 0.000, 16:40:46.151
255, -110579.75, -32079.60, 152611.33, 156560.42, -44404.67, -45504.91, -41552.27, 157515.28, 45021.24, 13571.67, 167029.28, -9371.46, 23114.34, -818.79, 82974.79, -4789.35, -0.064, 0.906, -0.272, 16:40:46.152
0, -110579.75, -32079.60, 152611.33, 156560.42, -44404.67, -45504.91, -41552.27, 157515.28, 45016.12, 13570.39, 167028.95, -9361.56, 23104.73, -822.50, 82990.73, -4787.59, 0.000, 0.000, 0.000, 16:40:46.152
1, -110572.82, -32076.45, 152615.22, 156569.92, -44426.35, -45498.54, -41561.44, 157514.44, 45016.12, 13570.39, 167028.95, -9361.56, 23104.73, -822.50, 82990.73, -4787.59, 0.000, 0.000, 0.000, 16:40:46.152
2, -110572.82, -32076.45, 152615.22, 156569.92, -44426.35, -45498.54, -41561.44, 157514.44, 45015.20, 13557.45, 167036.22, -9351.70, 23107.75, -814.83, 82986.34, -4794.49, 0.000, 0.000, 0.000, 16:40:46.152
3, -110574.08, -32083.27, 152617.80, 156567.50, -44433.99, -45500.59, -41558.30, 157527.92, 45015.20, 13557.45, 167036.22, -9351.70, 23107.75, -814.83, 82986.34, -4794.49, 0.000, 0.000, 0.000, 16:40:46.153
4, -110574.08, -32083.27, 152617.80, 156567.50, -44433.99, -45500.59, -41558.30, 157527.92, 45016.48, 13543.55, 167040.19, -9351.17, 23111.50, -813.20, 82976.67, -4795.28, 0.000, 0.000, 0.000, 16:40:46.154
5, -110590.08, -32106.96, 152609.72, 156564.08, -44432.32, -45491.86, -41556.99, 157542.42, 45016.48, 13543.55, 167040.19, -9351.17, 23111.50, -813.20, 82976.67, -4795.28, 0.000, 0.000, 0.000, 16:40:46.155
6, -110590.08, -32106.96, 152609.72, 156564.08, -44432.32, -45491.86, -41556.99, 157542.42, 45009.68, 13534.03, 167031.03, -9360.08, 23099.54, -824.65, 82966.61, -4789.51, 0.000, 0.000, 0.000, 16:40:46.155
7, -110595.09, -32118.23, 152598.17, 156562.83, -44433.95, -45482.40, -41554.55, 157547.41, 45009.68, 13534.03, 167031.03, -9360.08, 23099.54, -824.65, 82966.61, -4789.51, 0.000, 0.000, 0.000, 16:40:46.155
8, -110595.09, -32118.23, 152598.17, 156562.83, -44433.95, -45482.40, -41554.55, 157547.41, 45011.20, 13532.77, 167033.53, -9359.43, 23105.33, -816.73, 82962.03, -4780.97, 0.000, 0.000, 0.000, 16:40:46.156
9, -110602.55, -32132.20, 152598.95, 156563.80, -44431.94, -45481.69, -41554.20, 157554.58, 45011.20, 13532.77, 167033.53, -9359.43, 23105.33, -816.73, 82962.03, -4780.97, -0.064, 0.908, -0.268, 16:40:46.158
10, -110602.55, -32132.20, 152598.95, 156563.80, -44431.94, -45481.69, -41554.20, 157554.58, 45019.21, 13527.34, 167030.22, -9354.90, 23106.81, -818.41, 82954.14, -4777.24, 0.000, 0.000, 0.000, 16:40:46.159
11, -110621.23, -32153.30, 152591.42, 156551.70, -44433.59, -45488.93, -41558.06, 157547.22, 45019.21, 13527.34, 167030.22, -9354.90, 23106.81, -818.41, 82954.14, -4777.24, 0.000, 0.000, 0.000, 16:40:46.159
12, -110621.23, -32153.30, 152591.42, 156551.70, -44433.59, -45488.93, -41558.06, 157547.22, 45013.91, 13532.28, 167012.19, -9368.11, 23093.98, -832.71, 82961.02, -4769.64, 0.000, 0.000, 0.000, 16:40:46.159
13, -110605.75, -32139.13, 152585.39, 156539.63, -44419.38, -45501.76, -41561.79, 157535.47, 45013.91, 13532.28, 167012.19, -9368.11, 23093.98, -832.71, 82961.02, -4769.64, 0.000, 0.000, 0.000, 16:40:46.159
14, -110605.75, -32139.13, 152585.39, 156539.63, -44419.38, -45501.76, -41561.79, 157535.47, 45019.34, 13539.95, 167007.67, -9370.12, 23098.72, -836.16, 82978.26, -4750.98, 0.000, 0.000, 0.000, 16:40:46.159
15, -110603.47, -32139.88, 152579.23, 156534.84, -44421.68, -45503.77, -41561.64, 157528.42, 45019.34, 13539.95, 167007.67, -9370.12, 23098.72, -836.16, 82978.26, -4750.98, 0.000, 0.000, 0.000, 16:40:46.160
16, -110603.47, -32139.88, 152579.23, 156534.84, -44421.68, -45503.77, -41561.64, 157528.42, 45033.09, 13536.64, 167014.84, -9353.78, 23117.34, -821.54, 82976.18, -4740.83, 0.000, 0.000, 0.000, 16:40:46.160
17, -110629.51, -32170.53, 152593.81, 156544.61, -44424.25, -45504.35, -41557.50, 157538.23, 45033.09, 13536.64, 167014.84, -9353.78, 23117.34, -821.54, 82976.18, -4740.83, 0.000, 0.000, 0.000, 16:40:46.160
18, -110629.51, -32170.53, 152593.81, 156544.61, -44424.25, -45504.35, -41557.50, 157538.23, 45023.36, 13526.45, 167012.45, -9353.20, 23114.09, -823.39, 82957.02, -4751.04, 0.000, 0.000, 0.000, 16:40:46.160
19, -110627.09, -32171.49, 152599.95, 156545.20, -44418.10, -45502.47, -41556.47, 157542.22, 45023.36, 13526.45, 167012.45, -9353.20, 23114.09, -823.39, 82957.02, -4751.04, -0.062, 0.906, -0.270, 16:40:46.161
20, -110627.09, -32171.49, 152599.95, 156545.20, -44418.10, -45502.47, -41556.47, 157542.22, 45016.57, 13530.38, 167003.73, -9365.63, 23110.29, -832.56, 82966.92, -4745.01, 0.000, 0.000, 0.000, 16:40:46.161
21, -110602.30, -32150.59, 152601.45, 156545.91, -44418.19, -45505.40, -41555.45, 157539.47, 45016.57, 13530.38, 167003.73, -9365.63, 23110.29, -832.56, 82966.92, -4745.01, 0.000, 0.000, 0.000, 16:40:46.161
22, -110602.30, -32150.59, 152601.45, 156545.91, -44418.19, -45505.40, -41555.45, 157539.47, 45028.68, 13533.65, 167020.16, -9348.75, 23125.72, -818.23, 82981.34, -4740.22, 0.000, 0.000, 0.000, 16:40:46.162
23, -110620.21, -32167.60, 152612.41, 156558.70, -44414.61, -45491.63, -41547.73, 157545.75, 45028.68, 13533.65, 167020.16, -9348.75, 23125.72, -818.23, 82981.34, -4740.22, 0.000, 0.000, 0.000, 16:40:46.162
24, -110620.21, -32167.60, 152612.41, 156558.70, -44414.61, -45491.63, -41547.73, 157545.75, 45021.73, 13533.53, 167015.52, -9348.24, 23116.75, -827.08, 82983.64, -4736.47, 0.000, 0.000, 0.000, 16:40:46.162
25, -110602.71, -32151.87, 152608.05, 156560.31, -44408.46, -45491.86, -41547.87, 157551.72, 45021.73, 13533.53, 167015.52, -9348.24, 23116.75, -827.08, 82983.64, -4736.47, 0.000, 0.000, 0.000, 16:40:46.163
26, -110602.71, -32151.87, 152608.05, 156560.31, -44408.46, -45491.86, -41547.87, 157551.72, 45022.20, 13546.03, 167014.53, -9348.30, 23107.68, -825.43, 83006.58, -4729.81, 0.000, 0.000, 0.000, 16:40:46.163
27, -110589.86, -32144.94, 152595.02, 156559.22, -44422.64, -45501.87, -41561.39, 157551.88, 45022.20, 13546.03, 167014.53, -9348.30, 23107.68, -825.43, 83006.58, -4729.81, 0.000, 0.000, 0.000, 16:40:46.163
28, -110589.86, -32144.94, 152595.02, 156559.22, -44422.64, -45501.87, -41561.39, 157551.88, 45025.20, 13552.53, 167012.03, -9344.88, 23099.41, -817.74, 83023.07, -4726.46, 0.000, 0.000, 0.000, 16:40:46.164
29, -110570.27, -32129.96, 152583.75, 156558.47, -44429.45, -45496.68, -41558.57, 157550.67, 45025.20, 13552.53, 167012.03, -9344.88, 23099.41, -817.74, 83023.07, -4726.46, -0.058, 0.908, -0.270, 16:40:46.164
30, -110570.27, -32129.96, 152583.75, 156558.47, -44429.45, -45496.68, -41558.57, 157550.67, 45029.44, 13560.62, 167012.70, -9341.73, 23101.89, -816.40, 83041.31, -4721.22, 0.000, 0.000, 0.000, 16:40:46.164
31, -110575.88, -32140.31, 152579.33, 156558.41, -44450.49, -45492.53, -41561.77, 157563.31, 45029.44, 13560.62, 167012.70, -9341.73, 23101.89, -816.40, 83041.31, -4721.22, 0.000, 0.000, 0.000, 16:40:46.165
32, -110575.88, -32140.31, 152579.33, 156558.41, -44450.49, -45492.53, -41561.77, 157563.31, 45029.51, 13550.95, 167016.92, -9337.15, 23107.77, -807.43, 83034.13, -4725.65, 0.000, 0.000, 0.000, 16:40:46.165
33, -110576.87, -32147.62, 152585.11, 156559.06, -44452.77, -45488.95, -41556.99, 157566.50, 45029.51, 13550.95, 167016.92, -9337.15, 23107.77, -807.43, 83034.13, -4725.65, 0.000, 0.000, 0.000, 16:40:46.165
34, -110576.87, -32147.62, 152585.11, 156559.06, -44452.77, -45488.95, -41556.99, 157566.50, 45023.32, 13554.12, 167008.88, -9347.68, 23096.57, -817.60, 83044.41, -4721.18, 0.000, 0.000, 0.000, 16:40:46.165
35, -110550.45, -32130.41, 152580.38, 156547.30, -44446.38, -45493.46, -41551.63, 157564.38, 45023.32, 13554.12, 167008.88, -9347.68, 23096.57, -817.60, 83044.41, -4721.18, 0.000, 0.000, 0.000, 16:40:46.166
36, -110550.45, -32130.41, 152580.38, 156547.30, -44446.38, -45493.46, -41551.63, 157564.38, 45029.18, 13560.60, 167008.39, -9351.97, 23094.63, -819.50, 83066.68, -4715.99, 0.000, 0.000, 0.000, 16:40:46.166
37, -110546.09, -32133.67, 152578.39, 156543.23, -44439.78, -45500.26, -41557.66, 157562.22, 45029.18, 13560.60, 167008.39, -9351.97, 23094.63, -819.50, 83066.68, -4715.99, 0.000, 0.000, 0.000, 16:40:46.166
38, -110546.09, -32133.67, 152578.39, 156543.23, -44439.78, -45500.26, -41557.66, 157562.22, 45038.41, 13551.37, 167021.69, -9338.85, 23104.60, -807.26, 83064.53, -4719.53, 0.000, 0.000, 0.000, 16:40:46.166
39, -110555.30, -32145.36, 152586.28, 156543.88, -44433.50, -45492.97, -41553.90, 157569.48, 45038.41, 13551.37, 167021.69, -9338.85, 23104.60, -807.26, 83064.53, -4719.53, -0.062, 0.896, -0.266, 16:40:46.167
40, -110555.30, -32145.36, 152586.28, 156543.88, -44433.50, -45492.97, -41553.90, 157569.48, 45024.79, 13556.60, 167003.59, -9350.27, 23089.31, -829.96, 83076.31, -4715.17, 0.000, 0.000, 0.000, 16:40:46.167
41, -110535.72, -32128.31, 152585.14, 156539.30, -44441.59, -45510.05, -41561.55, 157564.86, 45024.79, 13556.60, 167003.59, -9350.27, 23089.31, -829.96, 83076.31, -4715.17, 0.000, 0.000, 0.000, 16:40:46.167
42, -110535.72, -32128.31, 152585.14, 156539.30, -44441.59, -45510.05, -41561.55, 157564.86, 45039.93, 13549.22, 167028.66, -9330.85, 23110.50, -815.77, 83071.35, -4723.68, 0.000, 0.000, 0.000, 16:40:46.167
43, -110561.34, -32156.60, 152593.75, 156547.48, -44431.33, -45503.55, -41555.65, 157567.08, 45039.93, 13549.22, 167028.66, -9330.85, 23110.50, -815.77, 83071.35, -4723.68, 0.000, 0.000, 0.000, 16:40:46.168
44, -110561.34, -32156.60, 152593.75, 156547.48, -44431.33, -45503.55, -41555.65, 157567.08, 45031.72, 13540.51, 167015.02, -9344.75, 23098.98, -824.98, 83061.98, -4726.50, 0.000, 0.000, 0.000, 16:40:46.172
45, -110548.13, -32149.52, 152593.72, 156543.03, -44428.92, -45506.05, -41556.47, 157570.38, 45031.72, 13540.51, 167015.02, -9344.75, 23098.98, -824.98, 83061.98, -4726.50, 0.000, 0.000, 0.000, 16:40:46.172
46, -110548.13, -32149.52, 152593.72, 156543.03, -44428.92, -45506.05, -41556.47, 157570.38, 45033.04, 13539.93, 167023.67, -9344.19, 23099.57, -829.94, 83072.58, -4724.04, 0.000, 0.000, 0.000, 16:40:46.173
47, -110555.39, -32160.45, 152598.84, 156549.78, -44426.13, -45500.66, -41554.44, 157574.42, 45033.04, 13539.93, 167023.67, -9344.19, 23099.57, -829.94, 83072.58, -4724.04, 0.000, 0.000, 0.000, 16:40:46.173
48, -110555.39, -32160.45, 152598.84, 156549.78, -44426.13, -45500.66, -41554.44, 157574.42, 45020.21, 13537.29, 167019.22, -9345.82, 23090.18, -839.24, 83070.59, -4726.01, -0.058, 0.902, -0.262, 16:40:46.173
49, -110519.47, -32128.75, 152588.02, 156543.81, -44404.91, -45503.86, -41559.34, 157573.92, 45020.21, 13537.29, 167019.22, -9345.82, 23090.18, -839.24, 83070.59, -4726.01, 0.000, 0.000, 0.000, 16:40:46.173
50, -110519.47, -32128.75, 152588.02, 156543.81, -44404.91, -45503.86, -41559.34, 157573.92, 45037.54, 13547.41, 167037.53, -9326.00, 23098.65, -821.69, 83095.58, -4723.46, 0.000, 0.000, 0.000, 16:40:46.173
51, -110527.47, -32140.56, 152580.72, 156544.38, -44427.67, -45493.46, -41560.99, 157574.83, 45037.54, 13547.41, 167037.53, -9326.00, 23098.65, -821.69, 83095.58, -4723.46, 0.000, 0.000, 0.000, 16:40:46.174
52, -110527.47, -32140.56, 152580.72, 156544.38, -44427.67, -45493.46, -41560.99, 157574.83, 45032.80, 13547.06, 167030.06, -9330.89, 23086.33, -830.41, 83108.97, -4724.09, 0.000, 0.000, 0.000, 16:40:46.174
53, -110524.59, -32143.44, 152582.05, 156546.03, -44441.64, -45499.88, -41571.94, 157567.08, 45032.80, 13547.06, 167030.06, -9330.89, 23086.33, -830.41, 83108.97, -4724.09, 0.000, 0.000, 0.000, 16:40:46.174
54, -110524.59, -32143.44, 152582.05, 156546.03, -44441.64, -45499.88, -41571.94, 157567.08, 45041.54, 13537.83, 167053.67, -9312.72, 23101.04, -802.85, 83089.59, -4735.28, 0.000, 0.000, 0.000, 16:40:46.174
55, -110553.73, -32174.78, 152592.88, 156561.94, -44443.65, -45486.38, -41564.23, 157584.20, 45041.54, 13537.83, 167053.67, -9312.72, 23101.04, -802.85, 83089.59, -4735.28, 0.000, 0.000, 0.000, 16:40:46.175
56, -110553.73, -32174.78, 152592.88, 156561.94, -44443.65, -45486.38, -41564.23, 157584.20, 45027.30, 13532.55, 167041.59, -9321.08, 23087.76, -815.79, 83069.61, -4735.37, 0.000, 0.000, 0.000, 16:40:46.175
57, -110540.50, -32163.78, 152587.17, 156552.73, -44443.56, -45487.88, -41555.09, 157583.45, 45027.30, 13532.55, 167041.59, -9321.08, 23087.76, -815.79, 83069.61, -4735.37, 0.000, 0.000, 0.000, 16:40:46.175
58, -110540.50, -32163.78, 152587.17, 156552.73, -44443.56, -45487.88, -41555.09, 157583.45, 45029.29, 13540.84, 167039.61, -9326.78, 23091.81, -820.17, 83079.76, -4732.60, -0.056, 0.902, -0.264, 16:40:46.175
59, -110538.72, -32165.21, 152580.63, 156544.39, -44450.55, -45508.48, -41568.14, 157573.84, 45029.29, 13540.84, 167039.61, -9326.78, 23091.81, -820.17, 83079.76, -4732.60, 0.000, 0.000, 0.000, 16:40:46.176
60, -110538.72, -32165.21, 152580.63, 156544.39, -44450.55, -45508.48, -41568.14, 157573.84, 45033.18, 13539.23, 167043.00, -9325.19, 23102.56, -817.65, 83076.96, -4734.61, 0.000, 0.000, 0.000, 16:40:46.176
61, -110550.09, -32179.04, 152570.52, 156536.06, -44455.25, -45509.47, -41579.72, 157568.45, 45033.18, 13539.23, 167043.00, -9325.19, 23102.56, -817.65, 83076.96, -4734.61, 0.000, 0.000, 0.000, 16:40:46.176
62, -110550.09, -32179.04, 152570.52, 156536.06, -44455.25, -45509.47, -41579.72, 157568.45, 45042.36, 13541.45, 167036.61, -9325.46, 23101.85, -816.31, 83079.62, -4734.55, 0.000, 0.000, 0.000, 16:40:46.176
63, -110554.41, -32186.38, 152565.33, 156532.22, -44456.93, -45515.21, -41582.16, 157569.53, 45042.36, 13541.45, 167036.61, -9325.46, 23101.85, -816.31, 83079.62, -4734.55, 0.000, 0.000, 0.000, 16:40:46.177
64, -110554.41, -32186.38, 152565.33, 156532.22, -44456.93, -45515.21, -41582.16, 157569.53, 45048.93, 13543.99, 167034.05, -9325.91, 23101.40, -813.16, 83085.16, -4728.24, 0.000, 0.000, 0.000, 16:40:46.177
65, -110562.21, -32200.77, 152568.94, 156533.86, -44448.07, -45513.54, -41574.58, 157577.30, 45048.93, 13543.99, 167034.05, -9325.91, 23101.40, -813.16, 83085.16, -4728.24, 0.000, 0.000, 0.000, 16:40:46.177
66, -110562.21, -32200.77, 152568.94, 156533.86, -44448.07, -45513.54, -41574.58, 157577.30, 45050.90, 13534.14, 167038.11, -9321.73, 23107.23, -811.59, 83076.23, -4722.32, 0.000, 0.000, 0.000, 16:40:46.177
67, -110557.96, -32202.29, 152576.69, 156528.84, -44454.02, -45515.30, -41564.09, 157583.69, 45050.90, 13534.14, 167038.11, -9321.73, 23107.23, -811.59, 83076.23, -4722.32, 0.000, 0.000, 0.000, 16:40:46.178
68, -110557.96, -32202.29, 152576.69, 156528.84, -44454.02, -45515.30, -41564.09, 157583.69, 45048.57, 13529.67, 167036.41, -9322.51, 23113.94, -821.18, 83074.01, -4726.21, -0.062, 0.902, -0.272, 16:40:46.179
69, -110570.63, -32218.81, 152597.39, 156537.16, -44460.17, -45505.29, -41555.98, 157595.50, 45048.57, 13529.67, 167036.41, -9322.51, 23113.94, -821.18, 83074.01, -4726.21, 0.000, 0.000, 0.000, 16:40:46.179
70, -110570.63, -32218.81, 152597.39, 156537.16, -44460.17, -45505.29, -41555.98, 157595.50, 45033.87, 13516.57, 167027.14, -9326.98, 23104.88, -829.85, 83057.31, -4724.60, 0.000, 0.000, 0.000, 16:40:46.179
71, -110555.16, -32207.72, 152595.69, 156539.77, -44457.42, -45510.48, -41549.75, 157606.84, 45033.87, 13516.57, 167027.14, -9326.98, 23104.88, -829.85, 83057.31, -4724.60, 0.000, 0.000, 0.000, 16:40:46.180
72, -110555.16, -32207.72, 152595.69, 156539.77, -44457.42, -45510.48, -41549.75, 157606.84, 45028.86, 13521.53, 167014.80, -9329.24, 23090.94, -830.95, 83072.20, -4720.24, 0.000, 0.000, 0.000, 16:40:46.180
73, -110534.47, -32192.77, 152574.95, 156534.94, -44458.96, -45512.17, -41560.36, 157613.70, 45028.86, 13521.53, 167014.80, -9329.24, 23090.94, -830.95, 83072.20, -4720.24, 0.000, 0.000, 0.000, 16:40:46.180
74, -110534.47, -32192.77, 152574.95, 156534.94, -44458.96, -45512.17, -41560.36, 157613.70, 45040.30, 13532.35, 167022.67, -9315.40, 23095.63, -820.60, 83090.02, -4723.95, 0.000, 0.000, 0.000, 16:40:46.180
75, -110557.83, -32218.32, 152573.00, 156542.67, -44470.67, -45505.60, -41569.39, 157610.11, 45040.30, 13532.35, 167022.67, -9315.40, 23095.63, -820.60, 83090.02, -4723.95, 0.000, 0.000, 0.000, 16:40:46.181
76, -110557.83, -32218.32, 152573.00, 156542.67, -44470.67, -45505.60, -41569.39, 157610.11, 45036.66, 13513.91, 167021.45, -9309.68, 23090.04, -814.83, 83063.82, -4737.54, 0.000, 0.000, 0.000, 16:40:46.181
77, -110564.46, -32225.65, 152567.13, 156536.84, -44459.92, -45503.97, -41564.70, 157610.91, 45036.66, 13513.91, 167021.45, -9309.68, 23090.04, -814.83, 83063.82, -4737.54, 0.000, 0.000, 0.000, 16:40:46.181
78, -110564.46, -32225.65, 152567.13, 156536.84, -44459.92, -45503.97, -41564.70, 157610.91, 45030.70, 13522.16, 167006.73, -9321.44, 23075.94, -837.48, 83076.65, -4731.57, -0.060, 0.904, -0.274, 16:40:46.181
79, -110543.01, -32206.20, 152562.92, 156534.31, -44451.89, -45512.73, -41576.14, 157613.81, 45030.70, 13522.16, 167006.73, -9321.44, 23075.94, -837.48, 83076.65, -4731.57, 0.000, 0.000, 0.000, 16:40:46.182
80, -110543.01, -32206.20, 152562.92, 156534.31, -44451.89, -45512.73, -41576.14, 157613.81, 45043.73, 13526.00, 167023.06, -9312.16, 23092.32, -820.00, 83087.11, -4736.94, 0.000, 0.000, 0.000, 16:40:46.182
81, -110569.59, -32231.86, 152574.03, 156545.11, -44461.89, -45504.62, -41569.28, 157615.42, 45043.73, 13526.00, 167023.06, -9312.16, 23092.32, -820.00, 83087.11, -4736.94, 0.000, 0.000, 0.000, 16:40:46.182
82, -110569.59, -32231.86, 152574.03, 156545.11, -44461.89, -45504.62, -41569.28, 157615.42, 45025.98, 13509.91, 167010.27, -9326.91, 23079.43, -843.53, 83074.26, -4746.86, 0.000, 0.000, 0.000, 16:40:46.183
83, -110543.88, -32208.59, 152572.33, 156539.14, -44454.62, -45512.46, -41564.72, 157612.50, 45025.98, 13509.91, 167010.27, -9326.91, 23079.43, -843.53, 83074.26, -4746.86, 0.000, 0.000, 0.000, 16:40:46.183
84, -110543.88, -32208.59, 152572.33, 156539.14, -44454.62, -45512.46, -41564.72, 157612.50, 45028.10, 13520.70, 167009.64, -9326.67, 23080.14, -841.16, 83094.91, -4740.58, 0.000, 0.000, 0.000, 16:40:46.183
85, -110548.51, -32215.54, 152580.48, 156537.64, -44459.09, -45511.75, -41577.44, 157610.86, 45028.10, 13520.70, 167009.64, -9326.67, 23080.14, -841.16, 83094.91, -4740.58, 0.000, 0.000, 0.000, 16:40:46.184
86, -110548.51, -32215.54, 152580.48, 156537.64, -44459.09, -45511.75, -41577.44, 157610.86, 45023.50, 13510.60, 167003.84, -9329.62, 23079.99, -841.88, 83086.75, -4739.28, 0.000, 0.000, 0.000, 16:40:46.184
87, -110534.54, -32201.60, 152575.80, 156530.92, -44461.71, -45510.45, -41575.16, 157611.08, 45023.50, 13510.60, 167003.84, -9329.62, 23079.99, -841.88, 83086.75, -4739.28, 0.000, 0.000, 0.000, 16:40:46.184
88, -110534.54, -32201.60, 152575.80, 156530.92, -44461.71, -45510.45, -41575.16, 157611.08, 45030.38, 13521.15, 167005.14, -9329.71, 23083.94, -837.05, 83108.05, -4721.14, -0.062, 0.904, -0.272, 16:40:46.184
89, -110526.06, -32197.29, 152572.28, 156527.88, -44466.47, -45505.89, -41577.75, 157608.72, 45030.38, 13521.15, 167005.14, -9329.71, 23083.94, -837.05, 83108.05, -4721.14, 0.000, 0.000, 0.000, 16:40:46.184
90, -110526.06, -32197.29, 152572.28, 156527.88, -44466.47, -45505.89, -41577.75, 157608.72, 45038.59, 13521.20, 167011.47, -9322.20, 23094.58, -826.90, 83115.36, -4716.29, 0.000, 0.000, 0.000, 16:40:46.185
91, -110534.11, -32210.03, 152581.61, 156528.80, -44459.52, -45511.82, -41576.23, 157614.69, 45038.59, 13521.20, 167011.47, -9322.20, 23094.58, -826.90, 83115.36, -4716.29, 0.000, 0.000, 0.000, 16:40:46.185
92, -110534.11, -32210.03, 152581.61, 156528.80, -44459.52, -45511.82, -41576.23, 157614.69, 45034.00, 13515.05, 167003.00, -9326.91, 23092.53, -837.54, 83117.91, -4723.12, 0.000, 0.000, 0.000, 16:40:46.185
93, -110507.02, -32184.90, 152587.59, 156523.27, -44450.93, -45516.35, -41570.98, 157630.27, 45034.00, 13515.05, 167003.00, -9326.91, 23092.53, -837.54, 83117.91, -4723.12, 0.000, 0.000, 0.000, 16:40:46.185
94, -110507.02, -32184.90, 152587.59, 156523.27, -44450.93, -45516.35, -41570.98, 157630.27, 45041.98, 13524.35, 167005.34, -9323.47, 23093.80, -839.69, 83142.32, -4723.95, 0.000, 0.000, 0.000, 16:40:46.185
95, -110508.45, -32187.32, 152587.94, 156524.67, -44459.59, -45516.04, -41573.91, 157632.25, 45041.98, 13524.35, 167005.34, -9323.47, 23093.80, -839.69, 83142.32, -4723.95, 0.000, 0.000, 0.000, 16:40:46.186
96, -110508.45, -32187.32, 152587.94, 156524.67, -44459.59, -45516.04, -41573.91, 157632.25, 45036.55, 13518.40, 167006.91, -9319.74, 23087.70, -834.28, 83144.62, -4727.95, 0.000, 0.000, 0.000, 16:40:46.187
97, -110490.59, -32173.53, 152586.19, 156531.05, -44462.96, -45520.11, -41569.82, 157629.41, 45036.55, 13518.40, 167006.91, -9319.74, 23087.70, -834.28, 83144.62, -4727.95, 0.000, 0.000, 0.000, 16:40:46.187
98, -110490.59, -32173.53, 152586.19, 156531.05, -44462.96, -45520.11, -41569.82, 157629.41, 45039.25, 13519.09, 167025.73, -9300.85, 23085.60, -819.62, 83147.75, -4738.41, -0.068, 0.904, -0.270, 16:40:46.187
99, -110507.65, -32193.91, 152581.00, 156541.67, -44476.86, -45512.35, -41570.09, 157627.67, 45039.25, 13519.09, 167025.73, -9300.85, 23085.60, -819.62, 83147.75, -4738.41, 0.000, 0.000, 0.000, 16:40:46.188
100, -110507.65, -32193.91, 152581.00, 156541.67, -44476.86, -45512.35, -41570.09, 157627.67, 45036.06, 13508.59, 167029.02, -9294.91, 23081.71, -819.08, 83132.59, -4754.26, 0.000, 0.000, 0.000, 16:40:46.188
101, -110498.55, -32187.05, 152577.27, 156542.27, -44469.51, -45511.95, -41573.06, 157636.09, 45036.06, 13508.59, 167029.02, -9294.91, 23081.71, -819.08, 83132.59, -4754.26, 0.000, 0.000, 0.000, 16:40:46.189
102, -110498.55, -32187.05, 152577.27, 156542.27, -44469.51, -45511.95, -41573.06, 157636.09, 45034.94, 13513.71, 167033.86, -9290.95, 23085.53, -810.79, 83129.84, -4756.23, 0.000, 0.000, 0.000, 16:40:46.189
103, -110514.93, -32204.53, 152585.45, 156555.66, -44467.21, -45507.61, -41579.18, 157620.31, 45034.94, 13513.71, 167033.86, -9290.95, 23085.53, -810.79, 83129.84, -4756.23, 0.000, 0.000, 0.000, 16:40:46.190
104, -110514.93, -32204.53, 152585.45, 156555.66, -44467.21, -45507.61, -41579.18, 157620.31, 45027.81, 13506.56, 167031.14, -9290.88, 23086.94, -804.13, 83110.35, -4754.17, 0.000, 0.000, 0.000, 16:40:46.190
105, -110508.12, -32196.48, 152579.19, 156550.11, -44455.05, -45512.17, -41573.44, 157609.03, 45027.81, 13506.56, 167031.14, -9290.88, 23086.94, -804.13, 83110.35, -4754.17, 0.000, 0.000, 0.000, 16:40:46.629
106, -110508.12, -32196.48, 152579.19, 156550.11, -44455.05, -45512.17, -41573.44, 157609.03, 45026.52, 13511.00, 167030.56, -9299.06, 23088.17, -817.43, 83117.33, -4742.57, 0.000, 0.000, 0.000, 16:40:46.629
107, -110500.70, -32189.06, 152572.25, 156535.27, -44458.07, -45520.89, -41573.93, 157584.33, 45026.52, 13511.00, 167030.56, -9299.06, 23088.17, -817.43, 83117.33, -4742.57, 0.000, 0.000, 0.000, 16:40:46.630
108, -110500.70, -32189.06, 152572.25, 156535.27, -44458.07, -45520.89, -41573.93, 157584.33, 45024.10, 13508.48, 167024.25, -9309.48, 23087.14, -822.34, 83117.35, -4737.12, -0.060, 0.904, -0.272, 16:40:46.630
109, -110493.14, -32181.15, 152576.06, 156529.08, -44453.21, -45529.14, -41569.41, 157554.64, 45024.10, 13508.48, 167024.25, -9309.48, 23087.14, -822.34, 83117.35, -4737.12, 0.000, 0.000, 0.000, 16:40:46.630
110, -110493.14, -32181.15, 152576.06, 156529.08, -44453.21, -45529.14, -41569.41, 157554.64, 45019.61, 13513.80, 167014.06, -9320.34, 23081.26, -826.79, 83131.43, -4719.03, 0.000, 0.000, 0.000, 16:40:46.631
111, -110470.97, -32157.45, 152574.55, 156518.08, -44448.23, -45532.25, -41562.08, 157541.19, 45019.61, 13513.80, 167014.06, -9320.34, 23081.26, -826.79, 83131.43, -4719.03, 0.000, 0.000, 0.000, 16:40:46.631
112, -110470.97, -32157.45, 152574.55, 156518.08, -44448.23, -45532.25, -41562.08, 157541.19, 45029.15, 13520.17, 167015.41, -9314.37, 23095.07, -814.01, 83152.29, -4706.47, 0.000, 0.000, 0.000, 16:40:46.631
113, -110444.70, -32131.73, 152570.55, 156516.00, -44441.84, -45511.39, -41555.54, 157545.39, 45029.15, 13520.17, 167015.41, -9314.37, 23095.07, -814.01, 83152.29, -4706.47, 0.000, 0.000, 0.000, 16:40:46.631
114, -110444.70, -32131.73, 152570.55, 156516.00, -44441.84, -45511.39, -41555.54, 157545.39, 45041.29, 13532.44, 167015.00, -9306.82, 23100.95, -795.28, 83181.05, -4691.92, 0.000, 0.000, 0.000, 16:40:46.631
115, -110448.50, -32133.11, 152574.45, 156514.27, -44448.07, -45524.45, -41554.68, 157538.20, 45041.29, 13532.44, 167015.00, -9306.82, 23100.95, -795.28, 83181.05, -4691.92, 0.000, 0.000, 0.000, 16:40:46.632
116, -110448.50, -32133.11, 152574.45, 156514.27, -44448.07, -45524.45, -41554.68, 157538.20, 45050.12, 13521.13, 167029.31, -9295.49, 23117.49, -779.18, 83165.20, -4700.17, 0.000, 0.000, 0.000, 16:40:46.632
117, -110466.05, -32147.04, 152587.70, 156514.59, -44428.49, -45518.07, -41540.05, 157539.36, 45050.12, 13521.13, 167029.31, -9295.49, 23117.49, -779.18, 83165.20, -4700.17, 0.000, 0.000, 0.000, 16:40:46.632
118, -110466.05, -32147.04, 152587.70, 156514.59, -44428.49, -45518.07, -41540.05, 157539.36, 45040.75, 13518.09, 167010.00, -9308.74, 23109.36, -797.71, 83154.12, -4705.15, -0.064, 0.896, -0.264, 16:40:46.632
119, -110441.46, -32124.64, 152579.08, 156504.16, -44420.94, -45527.26, -41529.61, 157538.80, 45040.75, 13518.09, 167010.00, -9308.74, 23109.36, -797.71, 83154.12, -4705.15, 0.000, 0.000, 0.000, 16:40:46.632
120, -110441.46, -32124.64, 152579.08, 156504.16, -44420.94, -45527.26, -41529.61, 157538.80, 45048.84, 13533.09, 167010.44, -9302.57, 23117.18, -792.91, 83172.52, -4702.25, 0.000, 0.000, 0.000, 16:40:46.632
121, -110451.01, -32137.36, 152581.88, 156512.77, -44444.39, -45524.98, -41536.13, 157540.75, 45048.84, 13533.09, 167010.44, -9302.57, 23117.18, -792.91, 83172.52, -4702.25, 0.000, 0.000, 0.000, 16:40:46.633
122, -110451.01, -32137.36, 152581.88, 156512.77, -44444.39, -45524.98, -41536.13, 157540.75, 45042.00, 13530.18, 167002.34, -9300.16, 23107.41, -791.70, 83161.48, -4704.35, 0.000, 0.000, 0.000, 16:40:46.633
123, -110420.74, -32111.97, 152570.31, 156512.44, -44432.96, -45523.66, -41538.08, 157542.56, 45042.00, 13530.18, 167002.34, -9300.16, 23107.41, -791.70, 83161.48, -4704.35, 0.000, 0.000, 0.000, 16:40:46.633
124, -110420.74, -32111.97, 152570.31, 156512.44, -44432.96, -45523.66, -41538.08, 157542.56, 45044.91, 13539.57, 167007.11, -9286.93, 23101.35, -789.87, 83174.33, -4701.56, 0.000, 0.000, 0.000, 16:40:46.633
125, -110420.19, -32111.74, 152562.70, 156514.80, -44445.23, -45526.03, -41543.69, 157536.67, 45044.91, 13539.57, 167007.11, -9286.93, 23101.35, -789.87, 83174.33, -4701.56, 0.000, 0.000, 0.000, 16:40:46.633
126, -110420.19, -32111.74, 152562.70, 156514.80, -44445.23, -45526.03, -41543.69, 157536.67, 45038.81, 13534.25, 167001.08, -9293.56, 23088.68, -802.85, 83171.15, -4712.37, 0.000, 0.000, 0.000, 16:40:46.633
127, -110411.51, -32104.14, 152554.11, 156514.73, -44433.75, -45515.88, -41550.46, 157526.33, 45038.81, 13534.25, 167001.08, -9293.56, 23088.68, -802.85, 83171.15, -4712.37, 0.000, 0.000, 0.000, 16:40:46.634
128, -110411.51, -32104.14, 152554.11, 156514.73, -44433.75, -45515.88, -41550.46, 157526.33, 45037.45, 13542.36, 166999.52, -9295.38, 23083.21, -797.02, 83175.04, -4705.91, -0.060, 0.900, -0.262, 16:40:46.634
129, -110395.38, -32089.41, 152551.28, 156516.47, -44430.77, -45524.42, -41551.06, 157525.45, 45037.45, 13542.36, 166999.52, -9295.38, 23083.21, -797.02, 83175.04, -4705.91, 0.000, 0.000, 0.000, 16:40:46.634
130, -110395.38, -32089.41, 152551.28, 156516.47, -44430.77, -45524.42, -41551.06, 157525.45, 45036.77, 13546.65, 166999.36, -9293.81, 23078.04, -805.36, 83188.32, -4692.26, 0.000, 0.000, 0.000, 16:40:46.634
131, -110392.58, -32086.76, 152557.56, 156522.64, -44442.00, -45526.37, -41560.77, 157524.66, 45036.77, 13546.65, 166999.36, -9293.81, 23078.04, -805.36, 83188.32, -4692.26, 0.000, 0.000, 0.000, 16:40:46.634
132, -110392.58, -32086.76, 152557.56, 156522.64, -44442.00, -45526.37, -41560.77, 157524.66, 45036.93, 13529.60, 167001.19, -9287.37, 23073.93, -805.36, 83171.51, -4701.09, 0.000, 0.000, 0.000, 16:40:46.634
133, -110397.72, -32091.14, 152559.75, 156526.91, -44456.28, -45522.66, -41559.85, 157532.58, 45036.93, 13529.60, 167001.19, -9287.37, 23073.93, -805.36, 83171.51, -4701.09, 0.000, 0.000, 0.000, 16:40:46.635
134, -110397.72, -32091.14, 152559.75, 156526.91, -44456.28, -45522.66, -41559.85, 157532.58, 45031.99, 13529.96, 166988.09, -9290.50, 23063.02, -809.38, 83169.95, -4699.72, 0.000, 0.000, 0.000, 16:40:46.635
135, -110398.50, -32093.97, 152557.22, 156522.02, -44467.74, -45526.86, -41566.98, 157520.41, 45031.99, 13529.96, 166988.09, -9290.50, 23063.02, -809.38, 83169.95, -4699.72, 0.000, 0.000, 0.000, 16:40:46.635
136, -110398.50, -32093.97, 152557.22, 156522.02, -44467.74, -45526.86, -41566.98, 157520.41, 45041.04, 13523.90, 166986.56, -9285.81, 23076.48, -803.90, 83162.23, -4703.43, 0.000, 0.000, 0.000, 16:40:46.635
137, -110407.84, -32103.23, 152556.11, 156513.72, -44472.39, -45525.70, -41561.17, 157526.91, 45041.04, 13523.90, 166986.56, -9285.81, 23076.48, -803.90, 83162.23, -4703.43, 0.000, 0.000, 0.000, 16:40:46.635
138, -110407.84, -32103.23, 152556.11, 156513.72, -44472.39, -45525.70, -41561.17, 157526.91, 45046.14, 13527.54, 166980.36, -9288.25, 23085.08, -792.79, 83160.76, -4700.71, -0.054, 0.898, -0.262, 16:40:46.635
139, -110425.23, -32119.01, 152558.61, 156507.64, -44472.44, -45521.05, -41551.80, 157536.63, 45046.14, 13527.54, 166980.36, -9288.25, 23085.08, -792.79, 83160.76, -4700.71, 0.000, 0.000, 0.000, 16:40:46.636
140, -110425.23, -32119.01, 152558.61, 156507.64, -44472.44, -45521.05, -41551.80, 157536.63, 45048.49, 13515.65, 166973.81, -9288.89, 23087.56, -791.34, 83136.69, -4710.63, 0.000, 0.000, 0.000, 16:40:46.636
141, -110436.10, -32132.49, 152559.13, 156497.91, -44457.30, -45526.21, -41548.34, 157537.34, 45048.49, 13515.65, 166973.81, -9288.89, 23087.56, -791.34, 83136.69, -4710.63, 0.000, 0.000, 0.000, 16:40:46.637
142, -110436.10, -32132.49, 152559.13, 156497.91, -44457.30, -45526.21, -41548.34, 157537.34, 45033.71, 13530.65, 166944.69, -9311.40, 23066.91, -825.11, 83150.63, -4706.65, 0.000, 0.000, 0.000, 16:40:46.637
143, -110409.74, -32103.90, 152555.56, 156493.55, -44454.78, -45537.25, -41555.76, 157537.59, 45033.71, 13530.65, 166944.69, -9311.40, 23066.91, -825.11, 83150.63, -4706.65, 0.000, 0.000, 0.000, 16:40:46.637
144, -110409.74, -32103.90, 152555.56, 156493.55, -44454.78, -45537.25, -41555.76, 157537.59, 45050.32, 13524.10, 166967.77, -9292.36, 23086.15, -802.38, 83150.12, -4718.56, 0.000, 0.000, 0.000, 16:40:46.637
145, -110424.99, -32121.24, 152558.23, 156496.78, -44462.29, -45531.55, -41552.11, 157544.64, 45050.32, 13524.10, 166967.77, -9292.36, 23086.15, -802.38, 83150.12, -4718.56, 0.000, 0.000, 0.000, 16:40:46.638
146, -110424.99, -32121.24, 152558.23, 156496.78, -44462.29, -45531.55, -41552.11, 157544.64, 45046.27, 13522.22, 166957.73, -9300.00, 23073.77, -809.87, 83147.44, -4716.53, 0.000, 0.000, 0.000, 16:40:46.638
147, -110409.70, -32108.12, 152555.55, 156497.75, -44467.23, -45525.50, -41543.49, 157548.30, 45046.27, 13522.22, 166957.73, -9300.00, 23073.77, -809.87, 83147.44, -4716.53, -0.062, 0.902, -0.268, 16:40:46.638
148, -110409.70, -32108.12, 152555.55, 156497.75, -44467.23, -45525.50, -41543.49, 157548.30, 45050.30, 13538.94, 166952.30, -9295.15, 23074.62, -808.80, 83166.59, -4697.20, 0.000, 0.000, 0.000, 16:40:46.639
149, -110390.50, -32089.88, 152547.81, 156496.14, -44477.06, -45536.13, -41549.68, 157541.77, 45050.30, 13538.94, 166952.30, -9295.15, 23074.62, -808.80, 83166.59, -4697.20, 0.000, 0.000, 0.000, 16:40:46.639
150, -110390.50, -32089.88, 152547.81, 156496.14, -44477.06, -45536.13, -41549.68, 157541.77, 45050.90, 13557.36, 166938.80, -9298.39, 23065.57, -807.50, 83191.34, -4691.43, 0.000, 0.000, 0.000, 16:40:46.639
151, -110372.82, -32078.44, 152546.05, 156493.66, -44494.27, -45542.59, -41558.08, 157528.89, 45050.90, 13557.36, 166938.80, -9298.39, 23065.57, -807.50, 83191.34, -4691.43, 0.000, 0.000, 0.000, 16:40:46.639
152, -110372.82, -32078.44, 152546.05, 156493.66, -44494.27, -45542.59, -41558.08, 157528.89, 45055.04, 13556.13, 166940.30, -9295.15, 23075.78, -808.93, 83198.17, -4696.21, 0.000, 0.000, 0.000, 16:40:46.639
153, -110353.98, -32065.23, 152548.59, 156493.88, -44482.29, -45543.62, -41550.75, 157532.19, 45055.04, 13556.13, 166940.30, -9295.15, 23075.78, -808.93, 83198.17, -4696.21, 0.000, 0.000, 0.000, 16:40:46.640
154, -110353.98, -32065.23, 152548.59, 156493.88, -44482.29, -45543.62, -41550.75, 157532.19, 45060.02, 13555.73, 166939.73, -9292.09, 23082.45, -809.92, 83200.95, -4698.83, 0.000, 0.000, 0.000, 16:40:46.640
155, -110363.14, -32076.07, 152553.20, 156506.06, -44479.03, -45546.02, -41559.04, 157535.98, 45060.02, 13555.73, 166939.73, -9292.09, 23082.45, -809.92, 83200.95, -4698.83, 0.000, 0.000, 0.000, 16:40:46.640
156, -110363.14, -32076.07, 152553.20, 156506.06, -44479.03, -45546.02, -41559.04, 157535.98, 45052.51, 13541.02, 166930.91, -9294.84, 23072.36, -812.64, 83184.70, -4706.72, 0.000, 0.000, 0.000, 16:40:46.640
157, -110359.21, -32075.74, 152551.91, 156520.77, -44481.58, -45535.46, -41554.48, 157547.11, 45052.51, 13541.02, 166930.91, -9294.84, 23072.36, -812.64, 83184.70, -4706.72, -0.060, 0.896, -0.270, 16:40:46.640
158, -110359.21, -32075.74, 152551.91, 156520.77, -44481.58, -45535.46, -41554.48, 157547.11, 45044.08, 13543.21, 166912.23, -9302.75, 23055.44, -814.54, 83192.01, -4698.98, 0.000, 0.000, 0.000, 16:40:46.640
159, -110338.17, -32060.58, 152545.06, 156520.14, -44483.21, -45531.89, -41558.82, 157545.59, 45044.08, 13543.21, 166912.23, -9302.75, 23055.44, -814.54, 83192.01, -4698.98, 0.000, 0.000, 0.000, 16:40:46.640
160, -110338.17, -32060.58, 152545.06, 156520.14, -44483.21, -45531.89, -41558.82, 157545.59, 45046.90, 13542.68, 166910.69, -9300.14, 23057.05, -810.74, 83201.73, -4690.78, 0.000, 0.000, 0.000, 16:40:46.641
161, -110340.19, -32068.96, 152549.22, 156514.44, -44486.92, -45528.09, -41558.75, 157549.80, 45046.90, 13542.68, 166910.69, -9300.14, 23057.05, -810.74, 83201.73, -4690.78, 0.000, 0.000, 0.000, 16:40:46.641
162, -110340.19, -32068.96, 152549.22, 156514.44, -44486.92, -45528.09, -41558.75, 157549.80, 45046.79, 13533.91, 166910.44, -9301.39, 23063.47, -815.41, 83193.75, -4693.02, 0.000, 0.000, 0.000, 16:40:46.641
163, -110346.34, -32078.04, 152558.67, 156509.69, -44473.96, -45521.54, -41550.39, 157559.50, 45046.79, 13533.91, 166910.44, -9301.39, 23063.47, -815.41, 83193.75, -4693.02, 0.000, 0.000, 0.000, 16:40:46.641
164, -110346.34, -32078.04, 152558.67, 156509.69, -44473.96, -45521.54, -41550.39, 157559.50, 45046.81, 13533.22, 166904.98, -9304.76, 23072.81, -813.38, 83191.27, -4698.83, 0.000, 0.000, 0.000, 16:40:46.641
165, -110340.95, -32074.64, 152557.17, 156494.30, -44469.73, -45532.83, -41549.90, 157556.14, 45046.81, 13533.22, 166904.98, -9304.76, 23072.81, -813.38, 83191.27, -4698.83, 0.000, 0.000, 0.000, 16:40:46.641
166, -110340.95, -32074.64, 152557.17, 156494.30, -44469.73, -45532.83, -41549.90, 157556.14, 45047.01, 13544.69, 166890.02, -9315.89, 23072.83, -833.38, 83212.88, -4701.58, 0.000, 0.000, 0.000, 16:40:46.642
167, -110298.55, -32037.71, 152546.16, 156481.56, -44463.18, -45548.32, -41557.30, 157550.89, 45047.01, 13544.69, 166890.02, -9315.89, 23072.83, -833.38, 83212.88, -4701.58, -0.058, 0.900, -0.268, 16:40:46.642
168, -110298.55, -32037.71, 152546.16, 156481.56, -44463.18, -45548.32, -41557.30, 157550.89, 45055.15, 13564.09, 166891.39, -9314.08, 23071.98, -828.33, 83253.95, -4692.68, 0.000, 0.000, 0.000, 16:40:46.642
169, -110288.04, -32029.58, 152537.13, 156485.20, -44476.73, -45546.10, -41571.96, 157555.94, 45055.15, 13564.09, 166891.39, -9314.08, 23071.98, -828.33, 83253.95, -4692.68, 0.000, 0.000, 0.000, 16:40:46.643
170, -110288.04, -32029.58, 152537.13, 156485.20, -44476.73, -45546.10, -41571.96, 157555.94, 45056.53, 13553.45, 166893.88, -9308.16, 23063.42, -821.69, 83255.77, -4701.26, 0.000, 0.000, 0.000, 16:40:46.643
171, -110295.02, -32039.35, 152536.03, 156495.20, -44488.13, -45546.04, -41570.76, 157560.17, 45056.53, 13553.45, 166893.88, -9308.16, 23063.42, -821.69, 83255.77, -4701.26, 0.000, 0.000, 0.000, 16:40:46.643
172, -110295.02, -32039.35, 152536.03, 156495.20, -44488.13, -45546.04, -41570.76, 157560.17, 45054.95, 13534.09, 166901.45, -9295.35, 23064.29, -814.23, 83236.42, -4709.56, 0.000, 0.000, 0.000, 16:40:46.643
173, -110297.45, -32045.29, 152538.20, 156506.64, -44479.19, -45541.92, -41563.89, 157558.53, 45054.95, 13534.09, 166901.45, -9295.35, 23064.29, -814.23, 83236.42, -4709.56, 0.000, 0.000, 0.000, 16:40:46.643
174, -110297.45, -32045.29, 152538.20, 156506.64, -44479.19, -45541.92, -41563.89, 157558.53, 45046.21, 13541.38, 166835.69, -9295.55, 23051.44, -820.47, 83245.43, -4704.01, 0.000, 0.000, 0.000, 16:40:46.643
175, -110291.64, -32044.78, 152540.25, 156514.11, -44486.25, -45542.95, -41572.75, 157560.81, 45046.21, 13541.38, 166835.69, -9295.55, 23051.44, -820.47, 83245.43, -4704.01, 0.000, 0.000, 0.000, 16:40:46.644
176, -110291.64, -32044.78, 152540.25, 156514.11, -44486.25, -45542.95, -41572.75, 157560.81, 45057.50, 13541.13, 166815.13, -9283.15, 23066.69, -805.40, 83244.87, -4699.63, 0.000, 0.000, 0.000, 16:40:46.644
177, -110283.39, -32041.27, 152537.39, 156512.08, -44479.48, -45540.76, -41564.52, 157561.98, 45057.50, 13541.13, 166815.13, -9283.15, 23066.69, -805.40, 83244.87, -4699.63, -0.054, 0.902, -0.268, 16:40:46.644
178, -110283.39, -32041.27, 152537.39, 156512.08, -44479.48, -45540.76, -41564.52, 157561.98, 45051.88, 13557.20, 166805.23, -9287.51, 23055.96, -820.06, 83270.02, -4681.71, 0.000, 0.000, 0.000, 16:40:46.644
179, -110276.87, -32036.35, 152543.08, 156516.19, -44490.59, -45537.27, -41570.51, 157559.55, 45051.88, 13557.20, 166805.23, -9287.51, 23055.96, -820.06, 83270.02, -4681.71, 0.000, 0.000, 0.000, 16:40:46.644
180, -110276.87, -32036.35, 152543.08, 156516.19, -44490.59, -45537.27, -41570.51, 157559.55, 45052.06, 13555.39, 166805.20, -9282.10, 23058.55, -823.44, 83270.41, -4685.71, 0.000, 0.000, 0.000, 16:40:46.645
181, -110256.21, -32019.01, 152543.05, 156512.86, -44486.00, -45532.76, -41560.92, 157563.13, 45052.06, 13555.39, 166805.20, -9282.10, 23058.55, -823.44, 83270.41, -4685.71, 0.000, 0.000, 0.000, 16:40:46.645
182, -110256.21, -32019.01, 152543.05, 156512.86, -44486.00, -45532.76, -41560.92, 157563.13, 45053.74, 13559.51, 166807.05, -9280.09, 23066.87, -813.56, 83279.71, -4684.12, 0.000, 0.000, 0.000, 16:40:46.645
183, -110258.73, -32022.76, 152555.25, 156518.70, -44484.26, -45545.21, -41563.22, 157566.25, 45053.74, 13559.51, 166807.05, -9280.09, 23066.87, -813.56, 83279.71, -4684.12, 0.000, 0.000, 0.000, 16:40:46.645
184, -110258.73, -32022.76, 152555.25, 156518.70, -44484.26, -45545.21, -41563.22, 157566.25, 45047.95, 13556.11, 166799.48, -9288.38, 23064.41, -826.52, 83279.47, -4687.85, 0.000, 0.000, 0.000, 16:40:46.645
185, -110250.73, -32015.41, 152559.41, 156517.44, -44484.48, -45549.03, -41569.53, 157566.92, 45047.95, 13556.11, 166799.48, -9288.38, 23064.41, -826.52, 83279.47, -4687.85, 0.000, 0.000, 0.000, 16:40:46.646
186, -110250.73, -32015.41, 152559.41, 156517.44, -44484.48, -45549.03, -41569.53, 157566.92, 45044.24, 13552.60, 166796.47, -9288.63, 23064.12, -824.96, 83282.51, -4698.63, 0.000, 0.000, 0.000, 16:40:46.646
187, -110256.10, -32023.50, 152568.84, 156515.14, -44492.35, -45553.68, -41565.19, 157561.75, 45044.24, 13552.60, 166796.47, -9288.63, 23064.12, -824.96, 83282.51, -4698.63, -0.054, 0.904, -0.268, 16:40:46.646
188, -110256.10, -32023.50, 152568.84, 156515.14, -44492.35, -45553.68, -41565.19, 157561.75, 45040.64, 13541.92, 166790.44, -9288.25, 23070.51, -835.69, 83272.09, -4709.87, 0.000, 0.000, 0.000, 16:40:46.647
189, -110244.92, -32014.49, 152573.98, 156504.16, -44476.24, -45555.40, -41562.17, 157564.19, 45040.64, 13541.92, 166790.44, -9288.25, 23070.51, -835.69, 83272.09, -4709.87, 0.000, 0.000, 0.000, 16:40:46.647
190, -110244.92, -32014.49, 152573.98, 156504.16, -44476.24, -45555.40, -41562.17, 157564.19, 45040.91, 13543.70, 166787.02, -9289.32, 23067.40, -831.48, 83280.56, -4711.17, 0.000, 0.000, 0.000, 16:40:46.648
191, -110236.03, -32007.29, 152561.48, 156498.34, -44470.76, -45554.30, -41561.70, 157567.08, 45040.91, 13543.70, 166787.02, -9289.32, 23067.40, -831.48, 83280.56, -4711.17, 0.000, 0.000, 0.000, 16:40:46.648
192, -110236.03, -32007.29, 152561.48, 156498.34, -44470.76, -45554.30, -41561.70, 157567.08, 45043.32, 13552.22, 166775.34, -9291.69, 23059.36, -837.88, 83304.44, -4701.98, 0.000, 0.000, 0.000, 16:40:46.648
193, -110244.79, -32020.64, 152548.89, 156493.97, -44489.45, -45539.67, -41565.37, 157567.98, 45043.32, 13552.22, 166775.34, -9291.69, 23059.36, -837.88, 83304.44, -4701.98, 0.000, 0.000, 0.000, 16:40:46.648
194, -110244.79, -32020.64, 152548.89, 156493.97, -44489.45, -45539.67, -41565.37, 157567.98, 45054.54, 13536.71, 166779.86, -9281.87, 23069.12, -814.79, 83290.58, -4704.30, 0.000, 0.000, 0.000, 16:40:46.648
195, -110250.52, -32035.57, 152542.97, 156494.59, -44483.37, -45551.25, -41563.96, 157565.78, 45054.54, 13536.71, 166779.86, -9281.87, 23069.12, -814.79, 83290.58, -4704.30, 0.000, 0.000, 0.000, 16:40:46.649
196, -110250.52, -32035.57, 152542.97, 156494.59, -44483.37, -45551.25, -41563.96, 157565.78, 45047.82, 13538.58, 166769.38, -9293.09, 23057.43, -822.81, 83291.00, -4703.43, 0.000, 0.000, 0.000, 16:40:46.649
197, -110247.77, -32036.40, 152540.77, 156499.67, -44489.63, -45534.95, -41562.62, 157562.50, 45047.82, 13538.58, 166769.38, -9293.09, 23057.43, -822.81, 83291.00, -4703.43, -0.058, 0.896, -0.268, 16:40:46.649
198, -110247.77, -32036.40, 152540.77, 156499.67, -44489.63, -45534.95, -41562.62, 157562.50, 45048.17, 13541.54, 166767.09, -9288.63, 23055.20, -819.12, 83291.31, -4700.35, 0.000, 0.000, 0.000, 16:40:46.649
199, -110250.45, -32042.86, 152542.66, 156510.39, -44492.46, -45529.34, -41560.25, 157574.89, 45048.17, 13541.54, 166767.09, -9288.63, 23055.20, -819.12, 83291.31, -4700.35, 0.000, 0.000, 0.000, 16:40:46.649
200, -110250.45, -32042.86, 152542.66, 156510.39, -44492.46, -45529.34, -41560.25, 157574.89, 45045.80, 13537.33, 166760.86, -9283.06, 23046.48, -815.10, 83285.62, -4702.25, 0.000, 0.000, 0.000, 16:40:46.649
201, -110221.16, -32018.38, 152537.42, 156506.38, -44482.79, -45538.86, -41556.96, 157577.47, 45045.80, 13537.33, 166760.86, -9283.06, 23046.48, -815.10, 83285.62, -4702.25, 0.000, 0.000, 0.000, 16:40:46.650
202, -110221.16, -32018.38, 152537.42, 156506.38, -44482.79, -45538.86, -41556.96, 157577.47, 45052.96, 13551.44, 166761.05, -9281.94, 23042.48, -807.10, 83317.33, -4694.36, 0.000, 0.000, 0.000, 16:40:46.650
203, -110221.57, -32023.99, 152539.05, 156509.97, -44498.97, -45536.96, -41563.36, 157574.55, 45052.96, 13551.44, 166761.05, -9281.94, 23042.48, -807.10, 83317.33, -4694.36, 0.000, 0.000, 0.000, 16:40:46.650
204, -110221.57, -32023.99, 152539.05, 156509.97, -44498.97, -45536.96, -41563.36, 157574.55, 45055.46, 13540.64, 166770.92, -9271.30, 23047.87, -809.07, 83305.84, -4701.09, 0.000, 0.000, 0.000, 16:40:46.650
205, -110251.25, -32053.38, 152552.08, 156520.77, -44505.88, -45525.00, -41564.50, 157573.88, 45055.46, 13540.64, 166770.92, -9271.30, 23047.87, -809.07, 83305.84, -4701.09, 0.000, 0.000, 0.000, 16:40:46.650
206, -110251.25, -32053.38, 152552.08, 156520.77, -44505.88, -45525.00, -41564.50, 157573.88, 45046.52, 13521.35, 166761.31, -9277.09, 23045.61, -820.06, 83273.19, -4714.88, 0.000, 0.000, 0.000, 16:40:46.650
207, -110244.99, -32049.29, 152547.50, 156507.13, -44498.95, -45543.69, -41565.84, 157569.84, 45046.52, 13521.35, 166761.31, -9277.09, 23045.61, -820.06, 83273.19, -4714.88, -0.064, 0.900, -0.268, 16:40:46.650
208, -110244.99, -32049.29, 152547.50, 156507.13, -44498.95, -45543.69, -41565.84, 157569.84, 45050.18, 13532.62, 166753.44, -9288.00, 23045.12, -823.24, 83288.90, -4709.80, 0.000, 0.000, 0.000, 16:40:46.651
209, -110240.99, -32048.44, 152551.45, 156501.03, -44507.69, -45545.14, -41571.58, 157576.19, 45050.18, 13532.62, 166753.44, -9288.00, 23045.12, -823.24, 83288.90, -4709.80, 0.000, 0.000, 0.000, 16:40:46.651
210, -110240.99, -32048.44, 152551.45, 156501.03, -44507.69, -45545.14, -41571.58, 157576.19, 45043.55, 13533.82, 166747.67, -9295.89, 23046.19, -837.52, 83297.75, -4713.74, 0.000, 0.000, 0.000, 16:40:46.651
211, -110215.38, -32027.99, 152557.52, 156491.58, -44512.20, -45551.33, -41577.48, 157580.52, 45043.55, 13533.82, 166747.67, -9295.89, 23046.19, -837.52, 83297.75, -4713.74, 0.000, 0.000, 0.000, 16:40:46.651
212, -110215.38, -32027.99, 152557.52, 156491.58, -44512.20, -45551.33, -41577.48, 157580.52, 45051.28, 13533.62, 166753.78, -9288.87, 23055.67, -829.74, 83310.96, -4723.35, 0.000, 0.000, 0.000, 16:40:46.651
213, -110222.21, -32041.20, 152566.09, 156496.05, -44517.14, -45545.10, -41571.07, 157582.70, 45051.28, 13533.62, 166753.78, -9288.87, 23055.67, -829.74, 83310.96, -4723.35, 0.000, 0.000, 0.000, 16:40:46.652
214, -110222.21, -32041.20, 152566.09, 156496.05, -44517.14, -45545.10, -41571.07, 157582.70, 45046.12, 13536.28, 166736.67, -9295.75, 23046.17, -843.62, 83319.68, -4722.83, 0.000, 0.000, 0.000, 16:40:46.652
215, -110187.73, -32011.79, 152553.73, 156488.69, -44513.52, -45557.55, -41574.11, 157585.20, 45046.12, 13536.28, 166736.67, -9295.75, 23046.17, -843.62, 83319.68, -4722.83, 0.000, 0.000, 0.000, 16:40:46.652
216, -110187.73, -32011.79, 152553.73, 156488.69, -44513.52, -45557.55, -41574.11, 157585.20, 45056.33, 13548.75, 166745.06, -9286.28, 23047.49, -834.46, 83350.19, -4718.97, 0.000, 0.000, 0.000, 16:40:46.652
217, -110191.66, -32018.69, 152550.19, 156491.75, -44529.32, -45548.54, -41577.75, 157588.98, 45056.33, 13548.75, 166745.06, -9286.28, 23047.49, -834.46, 83350.19, -4718.97, -0.074, 0.904, -0.268, 16:40:46.653
218, -110191.66, -32018.69, 152550.19, 156491.75, -44529.32, -45548.54, -41577.75, 157588.98, 45051.75, 13534.88, 166738.83, -9282.10, 23048.49, -835.73, 83337.38, -4724.73, 0.000, 0.000, 0.000, 16:40:46.653
219, -110188.73, -32019.88, 152542.81, 156496.45, -44526.86, -45556.05, -41573.55, 157595.06, 45051.75, 13534.88, 166738.83, -9282.10, 23048.49, -835.73, 83337.38, -4724.73, 0.000, 0.000, 0.000, 16:40:46.653
220, -110188.73, -32019.88, 152542.81, 156496.45, -44526.86, -45556.05, -41573.55, 157595.06, 45045.94, 13538.23, 166725.14, -9286.93, 23034.97, -829.96, 83345.98, -4720.55, 0.000, 0.000, 0.000, 16:40:46.653
221, -110176.44, -32011.52, 152538.98, 156498.66, -44528.25, -45550.37, -41576.14, 157593.38, 45045.94, 13538.23, 166725.14, -9286.93, 23034.97, -829.96, 83345.98, -4720.55, 0.000, 0.000, 0.000, 16:40:46.653
222, -110176.44, -32011.52, 152538.98, 156498.66, -44528.25, -45550.37, -41576.14, 157593.38, 45046.81, 13541.67, 166717.50, -9286.41, 23033.76, -833.50, 83362.99, -4710.65, 0.000, 0.000, 0.000, 16:40:46.654
223, -110168.08, -32006.31, 152537.08, 156501.44, -44536.65, -45546.26, -41585.80, 157587.48, 45046.81, 13541.67, 166717.50, -9286.41, 23033.76, -833.50, 83362.99, -4710.65, 0.000, 0.000, 0.000, 16:40:46.654
224, -110168.08, -32006.31, 152537.08, 156501.44, -44536.65, -45546.26, -41585.80, 157587.48, 45062.37, 13530.23, 166733.86, -9265.87, 23051.20, -815.57, 83356.20, -4705.15, 0.000, 0.000, 0.000, 16:40:46.654
225, -110203.59, -32044.13, 152534.80, 156507.69, -44535.54, -45539.11, -41583.63, 157585.41, 45062.37, 13530.23, 166733.86, -9265.87, 23051.20, -815.57, 83356.20, -4705.15, 0.000, 0.000, 0.000, 16:40:46.655
226, -110203.59, -32044.13, 152534.80, 156507.69, -44535.54, -45539.11, -41583.63, 157585.41, 45051.62, 13517.49, 166710.17, -9279.15, 23036.24, -832.83, 83332.95, -4710.36, 0.000, 0.000, 0.000, 16:40:47.110
227, -110189.29, -32036.04, 152525.81, 156495.20, -44519.96, -45548.94, -41580.14, 157587.58, 45051.62, 13517.49, 166710.17, -9279.15, 23036.24, -832.83, 83332.95, -4710.36, -0.072, 0.902, -0.268, 16:40:47.110
228, -110189.29, -32036.04, 152525.81, 156495.20, -44519.96, -45548.94, -41580.14, 157587.58, 45052.31, 13526.94, 166702.39, -9282.79, 23036.91, -840.27, 83350.73, -4706.50, 0.000, 0.000, 0.000, 16:40:47.110
229, -110192.11, -32039.26, 152535.00, 156501.66, -44534.29, -45538.06, -41582.04, 157589.77, 45052.31, 13526.94, 166702.39, -9282.79, 23036.91, -840.27, 83350.73, -4706.50, 0.000, 0.000, 0.000, 16:40:47.110
230, -110192.11, -32039.26, 152535.00, 156501.66, -44534.29, -45538.06, -41582.04, 157589.77, 45052.55, 13518.89, 166706.86, -9278.68, 23039.80, -840.34, 83340.42, -4718.25, 0.000, 0.000, 0.000, 16:40:47.111
231, -110197.47, -32045.18, 152541.05, 156504.31, -44531.00, -45548.03, -41584.77, 157590.91, 45052.55, 13518.89, 166706.86, -9278.68, 23039.80, -840.34, 83340.42, -4718.25, 0.000, 0.000, 0.000, 16:40:47.111
232, -110197.47, -32045.18, 152541.05, 156504.31, -44531.00, -45548.03, -41584.77, 157590.91, 45052.73, 13519.70, 166710.86, -9276.17, 23037.29, -836.65, 83333.47, -4717.16, 0.000, 0.000, 0.000, 16:40:47.111
233, -110210.50, -32063.84, 152552.34, 156508.52, -44525.99, -45532.25, -41579.70, 157594.02, 45052.73, 13519.70, 166710.86, -9276.17, 23037.29, -836.65, 83333.47, -4717.16, 0.000, 0.000, 0.000, 16:40:47.111
234, -110210.50, -32063.84, 152552.34, 156508.52, -44525.99, -45532.25, -41579.70, 157594.02, 45053.54, 13510.27, 166708.72, -9279.77, 23046.79, -835.49, 83320.51, -4718.21, 0.000, 0.000, 0.000, 16:40:47.112
235, -110216.36, -32074.48, 152559.28, 156501.66, -44521.77, -45547.42, -41573.98, 157584.67, 45053.54, 13510.27, 166708.72, -9279.77, 23046.79, -835.49, 83320.51, -4718.21, 0.000, 0.000, 0.000, 16:40:47.112
236, -110216.36, -32074.48, 152559.28, 156501.66, -44521.77, -45547.42, -41573.98, 157584.67, 45042.41, 13515.09, 166692.05, -9296.87, 23037.12, -852.12, 83333.91, -4708.73, -0.066, 0.904, -0.274, 16:40:47.112
237, -110203.02, -32066.71, 152566.70, 156498.28, -44521.70, -45561.10, -41580.97, 157578.42, 45042.41, 13515.09, 166692.05, -9296.87, 23037.12, -852.12, 83333.91, -4708.73, 0.000, 0.000, 0.000, 16:40:47.112
238, -110203.02, -32066.71, 152566.70, 156498.28, -44521.70, -45561.10, -41580.97, 157578.42, 45053.61, 13505.62, 166709.72, -9284.20, 23058.69, -845.68, 83323.73, -4717.31, 0.000, 0.000, 0.000, 16:40:47.112
239, -110212.80, -32078.82, 152573.06, 156497.48, -44509.18, -45563.02, -41564.54, 157583.53, 45053.61, 13505.62, 166709.72, -9284.20, 23058.69, -845.68, 83323.73, -4717.31, 0.000, 0.000, 0.000, 16:40:47.113
240, -110212.80, -32078.82, 152573.06, 156497.48, -44509.18, -45563.02, -41564.54, 157583.53, 45046.12, 13508.68, 166694.00, -9295.69, 23040.69, -865.37, 83340.31, -4704.24, 0.000, 0.000, 0.000, 16:40:47.113
241, -110181.20, -32050.68, 152561.67, 156498.39, -44504.18, -45557.26, -41567.87, 157581.80, 45046.12, 13508.68, 166694.00, -9295.69, 23040.69, -865.37, 83340.31, -4704.24, 0.000, 0.000, 0.000, 16:40:47.113
242, -110181.20, -32050.68, 152561.67, 156498.39, -44504.18, -45557.26, -41567.87, 157581.80, 45048.69, 13526.36, 166692.64, -9292.45, 23032.76, -864.36, 83384.07, -4683.50, 0.000, 0.000, 0.000, 16:40:47.113
243, -110157.23, -32030.27, 152556.97, 156510.64, -44520.09, -45559.61, -41572.99, 157584.23, 45048.69, 13526.36, 166692.64, -9292.45, 23032.76, -864.36, 83384.07, -4683.50, 0.000, 0.000, 0.000, 16:40:47.113
244, -110157.23, -32030.27, 152556.97, 156510.64, -44520.09, -45559.61, -41572.99, 157584.23, 45055.17, 13523.03, 166706.17, -9273.20, 23038.75, -843.11, 83391.65, -4686.29, 0.000, 0.000, 0.000, 16:40:47.114
245, -110156.86, -32033.02, 152552.27, 156517.06, -44534.04, -45553.68, -41568.07, 157594.97, 45055.17, 13523.03, 166706.17, -9273.20, 23038.75, -843.11, 83391.65, -4686.29, 0.000, 0.000, 0.000, 16:40:47.114
246, -110156.86, -32033.02, 152552.27, 156517.06, -44534.04, -45553.68, -41568.07, 157594.97, 45054.99, 13520.97, 166705.25, -9269.42, 23035.60, -839.22, 83394.22, -4696.03, -0.060, 0.908, -0.270, 16:40:47.114
247, -110160.45, -32039.66, 152548.64, 156515.41, -44536.03, -45549.55, -41567.83, 157600.84, 45054.99, 13520.97, 166705.25, -9269.42, 23035.60, -839.22, 83394.22, -4696.03, 0.000, 0.000, 0.000, 16:40:47.114
248, -110160.45, -32039.66, 152548.64, 156515.41, -44536.03, -45549.55, -41567.83, 157600.84, 45049.76, 13516.66, 166697.34, -9270.97, 23030.88, -843.47, 83389.73, -4704.64, 0.000, 0.000, 0.000, 16:40:47.114
249, -110163.05, -32047.30, 152551.30, 156517.28, -44545.59, -45544.56, -41569.15, 157596.13, 45049.76, 13516.66, 166697.34, -9270.97, 23030.88, -843.47, 83389.73, -4704.64, 0.000, 0.000, 0.000, 16:40:47.115
250, -110163.05, -32047.30, 152551.30, 156517.28, -44545.59, -45544.56, -41569.15, 157596.13, 45048.96, 13511.00, 166705.81, -9263.88, 23036.22, -841.65, 83371.49, -4715.06, 0.000, 0.000, 0.000, 16:40:47.115
251, -110176.88, -32065.10, 152553.48, 156520.39, -44537.48, -45542.17, -41568.90, 157599.44, 45048.96, 13511.00, 166705.81, -9263.88, 23036.22, -841.65, 83371.49, -4715.06, 0.000, 0.000, 0.000, 16:40:47.115
252, -110176.88, -32065.10, 152553.48, 156520.39, -44537.48, -45542.17, -41568.90, 157599.44, 45043.32, 13504.52, 166699.91, -9264.22, 23030.72, -850.71, 83361.45, -4714.09, 0.000, 0.000, 0.000, 16:40:47.115
253, -110174.41, -32065.52, 152543.92, 156514.17, -44533.77, -45543.96, -41571.61, 157603.44, 45043.32, 13504.52, 166699.91, -9264.22, 23030.72, -850.71, 83361.45, -4714.09, 0.000, 0.000, 0.000, 16:40:47.115
254, -110174.41, -32065.52, 152543.92, 156514.17, -44533.77, -45543.96, -41571.61, 157603.44, 45041.09, 13506.94, 166686.97, -9274.74, 23022.59, -862.89, 83370.48, -4711.32, 0.000, 0.000, 0.000, 16:40:47.116
255, -110173.82, -32063.96, 152537.11, 156503.91, -44544.48, -45543.78, -41577.02, 157609.13, 45041.09, 13506.94, 166686.97, -9274.74, 23022.59, -862.89, 83370.48, -4711.32, 0.000, 0.000, 0.000, 16:40:47.116
0, -110173.82, -32063.96, 152537.11, 156503.91, -44544.48, -45543.78, -41577.02, 157609.13, 45042.00, 13501.10, 166687.09, -9277.69, 23022.30, -870.24, 83376.66, -4713.69, -0.064, 0.906, -0.270, 16:40:47.116
1, -110162.73, -32054.77, 152543.31, 156501.14, -44545.24, -45548.27, -41582.27, 157611.08, 45042.00, 13501.10, 166687.09, -9277.69, 23022.30, -870.24, 83376.66, -4713.69, 0.000, 0.000, 0.000, 16:40:47.116
2, -110162.73, -32054.77, 152543.31, 156501.14, -44545.24, -45548.27, -41582.27, 157611.08, 45040.73, 13510.02, 166684.81, -9275.91, 23021.04, -876.66, 83396.21, -4710.67, 0.000, 0.000, 0.000, 16:40:47.116
3, -110145.28, -32042.77, 152550.58, 156505.03, -44538.84, -45558.71, -41583.25, 157607.63, 45040.73, 13510.02, 166684.81, -9275.91, 23021.04, -876.66, 83396.21, -4710.67, 0.000, 0.000, 0.000, 16:40:47.116
4, -110145.28, -32042.77, 152550.58, 156505.03, -44538.84, -45558.71, -41583.25, 157607.63, 45042.77, 13514.11, 166694.39, -9262.41, 23028.96, -869.13, 83408.80, -4716.78, 0.000, 0.000, 0.000, 16:40:47.117
5, -110135.16, -32037.87, 152565.56, 156513.72, -44541.84, -45553.19, -41580.75, 157610.48, 45042.77, 13514.11, 166694.39, -9262.41, 23028.96, -869.13, 83408.80, -4716.78, 0.000, 0.000, 0.000, 16:40:47.117
6, -110135.16, -32037.87, 152565.56, 156513.72, -44541.84, -45553.19, -41580.75, 157610.48, 45040.57, 13516.05, 166688.67, -9262.50, 23034.03, -861.30, 83422.79, -4711.77, 0.000, 0.000, 0.000, 16:40:47.117
7, -110126.55, -32034.41, 152574.30, 156516.09, -44542.82, -45556.72, -41581.91, 157614.44, 45040.57, 13516.05, 166688.67, -9262.50, 23034.03, -861.30, 83422.79, -4711.77, 0.000, 0.000, 0.000, 16:40:47.117
8, -110126.55, -32034.41, 152574.30, 156516.09, -44542.82, -45556.72, -41581.91, 157614.44, 45046.56, 13510.87, 166690.31, -9262.63, 23045.34, -858.75, 83429.74, -4714.74, 0.000, 0.000, 0.000, 16:40:47.117
9, -110132.83, -32046.03, 152580.25, 156517.30, -44542.98, -45563.05, -41578.91, 157607.91, 45046.56, 13510.87, 166690.31, -9262.63, 23045.34, -858.75, 83429.74, -4714.74, 0.000, 0.000, 0.000, 16:40:47.117
10, -110132.83, -32046.03, 152580.25, 156517.30, -44542.98, -45563.05, -41578.91, 157607.91, 45043.79, 13501.10, 166691.25, -9263.97, 23043.60, -861.44, 83416.22, -4726.95, -0.064, 0.906, -0.270, 16:40:47.118
11, -110155.56, -32068.83, 152577.03, 156515.45, -44543.23, -45547.85, -41577.08, 157604.25, 45043.79, 13501.10, 166691.25, -9263.97, 23043.60, -861.44, 83416.22, -4726.95, 0.000, 0.000, 0.000, 16:40:47.118
12, -110155.56, -32068.83, 152577.03, 156515.45, -44543.23, -45547.85, -41577.08, 157604.25, 45041.89, 13487.62, 166686.70, -9265.51, 23039.02, -864.03, 83394.20, -4738.86, 0.000, 0.000, 0.000, 16:40:47.118
13, -110159.95, -32073.52, 152560.42, 156504.25, -44532.92, -45551.87, -41571.43, 157595.19, 45041.89, 13487.62, 166686.70, -9265.51, 23039.02, -864.03, 83394.20, -4738.86, 0.000, 0.000, 0.000, 16:40:47.118
14, -110159.95, -32073.52, 152560.42, 156504.25, -44532.92, -45551.87, -41571.43, 157595.19, 45036.59, 13499.63, 166665.63, -9277.92, 23028.87, -880.19, 83413.09, -4728.33, 0.000, 0.000, 0.000, 16:40:47.118
15, -110146.30, -32061.56, 152549.02, 156504.67, -44533.77, -45555.89, -41568.77, 157611.23, 45036.59, 13499.63, 166665.63, -9277.92, 23028.87, -880.19, 83413.09, -4728.33, 0.000, 0.000, 0.000, 16:40:47.119
16, -110146.30, -32061.56, 152549.02, 156504.67, -44533.77, -45555.89, -41568.77, 157611.23, 45054.54, 13509.82, 166677.69, -9258.54, 23042.95, -853.68, 83421.54, -4718.01, 0.000, 0.000, 0.000, 16:40:47.119
17, -110161.71, -32080.03, 152544.75, 156503.31, -44528.36, -45548.25, -41569.73, 157607.53, 45054.54, 13509.82, 166677.69, -9258.54, 23042.95, -853.68, 83421.54, -4718.01, 0.000, 0.000, 0.000, 16:40:47.119
18, -110161.71, -32080.03, 152544.75, 156503.31, -44528.36, -45548.25, -41569.73, 157607.53, 45060.89, 13510.53, 166670.78, -9259.57, 23049.12, -844.16, 83420.53, -4710.43, 0.000, 0.000, 0.000, 16:40:47.119
19, -110157.46, -32082.64, 152540.08, 156491.75, -44529.93, -45549.64, -41576.64, 157603.02, 45060.89, 13510.53, 166670.78, -9259.57, 23049.12, -844.16, 83420.53, -4710.43, 0.000, 0.000, 0.000, 16:40:47.119
20, -110157.46, -32082.64, 152540.08, 156491.75, -44529.93, -45549.64, -41576.64, 157603.02, 45061.07, 13517.49, 166661.75, -9266.41, 23044.96, -855.29, 83433.25, -4702.63, -0.064, 0.906, -0.268, 16:40:47.119
21, -110144.37, -32075.31, 152535.52, 156484.06, -44539.98, -45558.40, -41581.46, 157595.17, 45061.07, 13517.49, 166661.75, -9266.41, 23044.96, -855.29, 83433.25, -4702.63, 0.000, 0.000, 0.000, 16:40:47.120
22, -110144.37, -32075.31, 152535.52, 156484.06, -44539.98, -45558.40, -41581.46, 157595.17, 45060.18, 13521.69, 166658.05, -9264.10, 23042.72, -865.08, 83448.58, -4702.47, 0.000, 0.000, 0.000, 16:40:47.120
23, -110139.06, -32071.06, 152532.61, 156481.30, -44558.52, -45561.17, -41589.11, 157594.66, 45060.18, 13521.69, 166658.05, -9264.10, 23042.72, -865.08, 83448.58, -4702.47, 0.000, 0.000, 0.000, 16:40:47.120
24, -110139.06, -32071.06, 152532.61, 156481.30, -44558.52, -45561.17, -41589.11, 157594.66, 45063.82, 13505.73, 166664.69, -9258.36, 23042.55, -861.35, 83436.84, -4714.79, 0.000, 0.000, 0.000, 16:40:47.120
25, -110153.98, -32085.19, 152535.25, 156483.94, -44563.07, -45551.82, -41586.89, 157600.95, 45063.82, 13505.73, 166664.69, -9258.36, 23042.55, -861.35, 83436.84, -4714.79, 0.000, 0.000, 0.000, 16:40:47.121
26, -110153.98, -32085.19, 152535.25, 156483.94, -44563.07, -45551.82, -41586.89, 157600.95, 45064.87, 13490.17, 166663.91, -9260.48, 23040.09, -860.23, 83423.26, -4719.37, 0.000, 0.000, 0.000, 16:40:47.121
27, -110181.55, -32112.28, 152546.27, 156488.98, -44563.88, -45559.67, -41584.46, 157599.39, 45064.87, 13490.17, 166663.91, -9260.48, 23040.09, -860.23, 83423.26, -4719.37, 0.000, 0.000, 0.000, 16:40:47.121
28, -110181.55, -32112.28, 152546.27, 156488.98, -44563.88, -45559.67, -41584.46, 157599.39, 45054.16, 13476.07, 166648.63, -9270.12, 23021.76, -868.81, 83408.44, -4722.30, 0.000, 0.000, 0.000, 16:40:47.121
29, -110185.29, -32115.97, 152548.95, 156492.25, -44548.43, -45562.29, -41584.44, 157604.67, 45054.16, 13476.07, 166648.63, -9270.12, 23021.76, -868.81, 83408.44, -4722.30, 0.000, 0.000, 0.000, 16:40:47.121
30, -110185.29, -32115.97, 152548.95, 156492.25, -44548.43, -45562.29, -41584.44, 157604.67, 45059.93, 13468.67, 166653.73, -9257.47, 23025.85, -859.29, 83401.38, -4724.00, -0.066, 0.908, -0.268, 16:40:47.122
31, -110199.44, -32127.32, 152558.98, 156502.81, -44539.05, -45559.18, -41582.18, 157606.81, 45059.93, 13468.67, 166653.73, -9257.47, 23025.85, -859.29, 83401.38, -4724.00, 0.000, 0.000, 0.000, 16:40:47.122
32, -110199.44, -32127.32, 152558.98, 156502.81, -44539.05, -45559.18, -41582.18, 157606.81, 45058.95, 13481.39, 166652.61, -9253.11, 23030.25, -850.86, 83408.59, -4719.91, 0.000, 0.000, 0.000, 16:40:47.122
33, -110179.34, -32110.80, 152563.97, 156502.38, -44528.54, -45564.81, -41583.18, 157608.22, 45058.95, 13481.39, 166652.61, -9253.11, 23030.25, -850.86, 83408.59, -4719.91, 0.000, 0.000, 0.000, 16:40:47.122
34, -110179.34, -32110.80, 152563.97, 156502.38, -44528.54, -45564.81, -41583.18, 157608.22, 45057.72, 13497.82, 166652.09, -9251.54, 23026.79, -859.60, 83430.16, -4713.56, 0.000, 0.000, 0.000, 16:40:47.122
35, -110191.86, -32128.60, 152572.83, 156515.72, -44537.01, -45559.38, -41582.98, 157612.06, 45057.72, 13497.82, 166652.09, -9251.54, 23026.79, -859.60, 83430.16, -4713.56, 0.000, 0.000, 0.000, 16:40:47.122
36, -110191.86, -32128.60, 152572.83, 156515.72, -44537.01, -45559.38, -41582.98, 157612.06, 45053.02, 13483.71, 166656.86, -9243.61, 23028.44, -856.30, 83402.09, -4727.37, 0.000, 0.000, 0.000, 16:40:47.123
37, -110183.48, -32123.39, 152569.52, 156514.89, -44537.84, -45556.14, -41576.25, 157634.23, 45053.02, 13483.71, 166656.86, -9243.61, 23028.44, -856.30, 83402.09, -4727.37, 0.000, 0.000, 0.000, 16:40:47.123
38, -110183.48, -32123.39, 152569.52, 156514.89, -44537.84, -45556.14, -41576.25, 157634.23, 45050.86, 13505.35, 166643.42, -9250.83, 23013.13, -860.41, 83426.59, -4715.17, 0.000, 0.000, 0.000, 16:40:47.123
39, -110177.69, -32121.80, 152559.09, 156514.11, -44545.71, -45564.03, -41589.40, 157635.53, 45050.86, 13505.35, 166643.42, -9250.83, 23013.13, -860.41, 83426.59, -4715.17, 0.000, 0.000, 0.000, 16:40:47.123
40, -110177.69, -32121.80, 152559.09, 156514.11, -44545.71, -45564.03, -41589.40, 157635.53, 45055.08, 13510.20, 166650.59, -9239.61, 23018.03, -854.33, 83427.93, -4729.70, -0.064, 0.910, -0.266, 16:40:47.123
41, -110181.18, -32129.71, 152557.28, 156518.70, -44549.08, -45563.74, -41591.61, 157634.80, 45055.08, 13510.20, 166650.59, -9239.61, 23018.03, -854.33, 83427.93, -4729.70, 0.000, 0.000, 0.000, 16:40:47.123
42, -110181.18, -32129.71, 152557.28, 156518.70, -44549.08, -45563.74, -41591.61, 157634.80, 45051.06, 13513.28, 166640.83, -9242.18, 23008.73, -857.84, 83433.47, -4726.25, 0.000, 0.000, 0.000, 16:40:47.124
43, -110167.12, -32117.98, 152547.36, 156508.14, -44542.89, -45561.91, -41594.18, 157629.86, 45051.06, 13513.28, 166640.83, -9242.18, 23008.73, -857.84, 83433.47, -4726.25, 0.000, 0.000, 0.000, 16:40:47.124
44, -110167.12, -32117.98, 152547.36, 156508.14, -44542.89, -45561.91, -41594.18, 157629.86, 45055.15, 13515.34, 166635.11, -9248.01, 23007.66, -859.54, 83447.62, -4729.14, 0.000, 0.000, 0.000, 16:40:47.124
45, -110164.97, -32117.11, 152540.64, 156498.23, -44546.82, -45563.67, -41600.24, 157623.61, 45055.15, 13515.34, 166635.11, -9248.01, 23007.66, -859.54, 83447.62, -4729.14, 0.000, 0.000, 0.000, 16:40:47.124
46, -110164.97, -32117.11, 152540.64, 156498.23, -44546.82, -45563.67, -41600.24, 157623.61, 45052.67, 13510.67, 166624.89, -9252.46, 23001.75, -864.54, 83451.24, -4739.58, 0.000, 0.000, 0.000, 16:40:47.124
47, -110151.78, -32108.73, 152531.36, 156492.45, -44543.58, -45564.97, -41601.42, 157625.91, 45052.67, 13510.67, 166624.89, -9252.46, 23001.75, -864.54, 83451.24, -4739.58, 0.000, 0.000, 0.000, 16:40:47.124
48, -110151.78, -32108.73, 152531.36, 156492.45, -44543.58, -45564.97, -41601.42, 157625.91, 45055.82, 13513.08, 166619.83, -9255.79, 23003.65, -873.46, 83464.85, -4732.74, 0.000, 0.000, 0.000, 16:40:47.125
49, -110151.52, -32114.78, 152530.47, 156495.80, -44546.55, -45564.57, -41597.27, 157634.72, 45055.82, 13513.08, 166619.83, -9255.79, 23003.65, -873.46, 83464.85, -4732.74, 0.000, 0.000, 0.000, 16:40:47.125
50, -110151.52, -32114.78, 152530.47, 156495.80, -44546.55, -45564.57, -41597.27, 157634.72, 45062.64, 13510.09, 166619.03, -9248.55, 23003.99, -868.70, 83471.23, -4730.21, -0.062, 0.908, -0.268, 16:40:47.125
51, -110160.93, -32123.68, 152532.70, 156500.47, -44548.23, -45544.52, -41595.14, 157640.92, 45062.64, 13510.09, 166619.03, -9248.55, 23003.99, -868.70, 83471.23, -4730.21, 0.000, 0.000, 0.000, 16:40:47.125
52, -110160.93, -32123.68, 152532.70, 156500.47, -44548.23, -45544.52, -41595.14, 157640.92, 45063.93, 13501.06, 166622.97, -9241.73, 23010.03, -858.15, 83468.18, -4734.73, 0.000, 0.000, 0.000, 16:40:47.126
53, -110156.03, -32119.99, 152537.95, 156499.91, -44534.24, -45563.98, -41582.67, 157643.45, 45063.93, 13501.06, 166622.97, -9241.73, 23010.03, -858.15, 83468.18, -4734.73, 0.000, 0.000, 0.000, 16:40:47.126
54, -110156.03, -32119.99, 152537.95, 156499.91, -44534.24, -45563.98, -41582.67, 157643.45, 45062.88, 13505.79, 166616.88, -9247.45, 23010.65, -859.00, 83487.83, -4724.96, 0.000, 0.000, 0.000, 16:40:47.126
55, -110169.33, -32135.50, 152544.02, 156504.66, -44537.50, -45559.61, -41583.61, 157638.84, 45062.88, 13505.79, 166616.88, -9247.45, 23010.65, -859.00, 83487.83, -4724.96, 0.000, 0.000, 0.000, 16:40:47.126
56, -110169.33, -32135.50, 152544.02, 156504.66, -44537.50, -45559.61, -41583.61, 157638.84, 45063.71, 13491.56, 166619.28, -9236.10, 23015.66, -851.56, 83466.57, -4732.96, 0.000, 0.000, 0.000, 16:40:47.126
57, -110167.38, -32134.14, 152548.03, 156501.88, -44527.98, -45564.48, -41582.80, 157649.44, 45063.71, 13491.56, 166619.28, -9236.10, 23015.66, -851.56, 83466.57, -4732.96, 0.000, 0.000, 0.000, 16:40:47.126
58, -110167.38, -32134.14, 152548.03, 156501.88, -44527.98, -45564.48, -41582.80, 157649.44, 45063.48, 13502.93, 166609.61, -9238.15, 23020.29, -858.28, 83481.26, -4727.82, 0.000, 0.000, 0.000, 16:40:47.127
59, -110170.09, -32135.97, 152554.36, 156502.50, -44531.27, -45570.76, -41587.54, 157646.30, 45063.48, 13502.93, 166609.61, -9238.15, 23020.29, -858.28, 83481.26, -4727.82, 0.000, 0.000, 0.000, 16:40:47.127
60, -110170.09, -32135.97, 152554.36, 156502.50, -44531.27, -45570.76, -41587.54, 157646.30, 45064.40, 13501.01, 166602.03, -9238.83, 23024.35, -864.30, 83483.56, -4728.27, -0.064, 0.904, -0.274, 16:40:47.127
61, -110169.89, -32137.36, 152551.28, 156501.03, -44530.39, -45572.32, -41592.46, 157649.53, 45064.40, 13501.01, 166602.03, -9238.83, 23024.35, -864.30, 83483.56, -4728.27, 0.000, 0.000, 0.000, 16:40:47.127
62, -110169.89, -32137.36, 152551.28, 156501.03, -44530.39, -45572.32, -41592.46, 157649.53, 45069.07, 13493.21, 166602.55, -9232.19, 23026.97, -856.32, 83476.25, -4733.00, 0.000, 0.000, 0.000, 16:40:47.127
63, -110184.62, -32155.06, 152548.80, 156503.00, -44536.95, -45571.47, -41591.21, 157658.16, 45069.07, 13493.21, 166602.55, -9232.19, 23026.97, -856.32, 83476.25, -4733.00, 0.000, 0.000, 0.000, 16:40:47.128
64, -110184.62, -32155.06, 152548.80, 156503.00, -44536.95, -45571.47, -41591.21, 157658.16, 45066.41, 13487.51, 166594.63, -9234.24, 23020.31, -863.72, 83472.68, -4732.40, 0.000, 0.000, 0.000, 16:40:47.128
